%OpenBCI Raw EXG Data
%Number of channels = 4
%Sample Rate = 200 Hz
%Board = OpenBCI_GUI$BoardGanglionBLE
Sample Index, EXG Channel 0, EXG Channel 1, EXG Channel 2, EXG Channel 3, Accel Channel 0, Accel Channel 1, Accel Channel 2, Other, Other, Other, Other, Other, Timestamp, Other, Timestamp (Formatted)
4.0, 167.2501959684305, 56.706233078148216, -206.67809125129133, -193.0124968132004, 0.0, 0.0, 0.0, 0.0, 0.0, 0.0, 0.0, 0.0, 1.706130304294041E9, 0.0, 2024-01-24 13:05:04.294
4.0, 64.50018458580598, 56.53045778023079, 33.91715269815177, -49.1722046174109, 0.0, 0.0, 0.0, 0.0, 0.0, 0.0, 0.0, 0.0, 1.706130304294041E9, 0.0, 2024-01-24 13:05:04.294
5.0, 92.3213003561832, 134.3054172587581, 57.54958051815629, -191.50718708103523, 0.0, 0.0, 0.0, 0.0, 0.0, 0.0, 0.0, 0.0, 1.70613030429905E9, 0.0, 2024-01-24 13:05:04.299
5.0, 116.65121951792389, 52.05753743322566, 252.07112696347758, -326.49139618175104, 0.0, 0.0, 0.0, 0.0, 0.0, 0.0, 0.0, 0.0, 1.70613030429905E9, 0.0, 2024-01-24 13:05:04.299
6.0, 100.07972281426191, 33.52259325282648, 404.7581525044516, -338.7283488367684, 0.0, 0.0, 0.0, 0.0, 0.0, 0.0, 0.0, 0.0, 1.706130304308911E9, 0.0, 2024-01-24 13:05:04.308
6.0, 215.04424745216966, 140.192019789014, 611.8588524507359, -537.3899645330384, 0.0, 0.0, 0.0, 0.0, 0.0, 0.0, 0.0, 0.0, 1.706130304308911E9, 0.0, 2024-01-24 13:05:04.308
7.0, 19.74293186608702, -46.4476874996908, 674.3656703601591, -405.85207324149087, 0.0, 0.0, 0.0, 0.0, 0.0, 0.0, 0.0, 0.0, 1.706130304313536E9, 0.0, 2024-01-24 13:05:04.313
7.0, 74.4595381678082, 35.95913807395846, 804.3477632701397, -634.5581752317958, 0.0, 0.0, 0.0, 0.0, 0.0, 0.0, 0.0, 0.0, 1.706130304313536E9, 0.0, 2024-01-24 13:05:04.313
8.0, -103.34839537553489, -124.27500557759777, 859.4215300176293, -771.3805451607332, 0.0, 0.0, 0.0, 0.0, 0.0, 0.0, 0.0, 0.0, 1.706130304322661E9, 0.0, 2024-01-24 13:05:04.322
8.0, 111.84170817490667, 120.53136572195217, 936.7551813013852, -528.9060014835559, 0.0, 0.0, 0.0, 0.0, 0.0, 0.0, 0.0, 0.0, 1.706130304322661E9, 0.0, 2024-01-24 13:05:04.322
9.0, 148.2739435932599, 166.98279312159866, 875.682615024969, -704.8944736984558, 0.0, 0.0, 0.0, 0.0, 0.0, 0.0, 0.0, 0.0, 1.706130304338979E9, 0.0, 2024-01-24 13:05:04.338
9.0, 43.60910343332216, 77.8160983780399, 1036.666608617641, -619.0525500155054, 0.0, 0.0, 0.0, 0.0, 0.0, 0.0, 0.0, 0.0, 1.706130304338979E9, 0.0, 2024-01-24 13:05:04.338
10.0, 123.669141784776, 159.12526331469417, 1076.5975204445422, -722.6047699386254, 0.0, 0.0, 1.0240000486373901, 0.0, 0.0, 0.0, 0.0, 0.0, 1.706130304343627E9, 0.0, 2024-01-24 13:05:04.343
10.0, 15.724409363698214, 40.099207324907184, 1245.291317795869, -862.1292175855488, 0.0, 0.0, 1.0240000486373901, 0.0, 0.0, 0.0, 0.0, 0.0, 1.706130304343627E9, 0.0, 2024-01-24 13:05:04.343
11.0, -0.9480646387673914, 17.955259687267244, 1421.760367155075, -831.2600833512843, 0.0, 0.12800000607967377, 1.0240000486373901, 0.0, 0.0, 0.0, 0.0, 0.0, 1.70613030438488E9, 0.0, 2024-01-24 13:05:04.384
11.0, 210.64799505425617, 212.82274687848985, 1226.1916487221606, -914.661722313147, 0.0, 0.12800000607967377, 1.0240000486373901, 0.0, 0.0, 0.0, 0.0, 0.0, 1.70613030438488E9, 0.0, 2024-01-24 13:05:04.384
12.0, 163.03532871836796, 134.34468620829284, 1402.9262309782207, -1131.3814449454658, -0.09600000455975533, 0.12800000607967377, 1.0240000486373901, 0.0, 0.0, 0.0, 0.0, 0.0, 1.70613030438989E9, 0.0, 2024-01-24 13:05:04.389
12.0, 380.97986858617514, 341.1069252085872, 1173.5955656953156, -1205.973749561701, -0.09600000455975533, 0.12800000607967377, 1.0240000486373901, 0.0, 0.0, 0.0, 0.0, 0.0, 1.70613030438989E9, 0.0, 2024-01-24 13:05:04.389
13.0, 429.1236007157713, 356.0328659317456, 1401.643445293419, -1149.1272702352144, -0.09600000455975533, 0.12800000607967377, 1.0240000486373901, 0.0, 0.0, 0.0, 0.0, 0.0, 1.706130304395668E9, 0.0, 2024-01-24 13:05:04.395
13.0, 420.37784466939047, 300.52714073937386, 1195.6217064843513, -1186.0438226978295, -0.09600000455975533, 0.12800000607967377, 1.0240000486373901, 0.0, 0.0, 0.0, 0.0, 0.0, 1.706130304395668E9, 0.0, 2024-01-24 13:05:04.395
14.0, 203.16445524292067, 541.5244239340536, 1325.2185896988958, -1155.5655080089346, -0.09600000455975533, 0.12800000607967377, 1.0240000486373901, 0.0, 0.0, 0.0, 0.0, 0.0, 1.706130304400979E9, 0.0, 2024-01-24 13:05:04.400
14.0, 296.50487833702937, 638.1148200896569, 1178.1675933911465, -1368.7154961335473, -0.09600000455975533, 0.12800000607967377, 1.0240000486373901, 0.0, 0.0, 0.0, 0.0, 0.0, 1.706130304400979E9, 0.0, 2024-01-24 13:05:04.400
15.0, 71.84347814880311, 411.20947992801666, 1404.6895938073285, -1284.7210830287077, -0.09600000455975533, 0.12800000607967377, 1.0240000486373901, 0.0, 0.0, 0.0, 0.0, 0.0, 1.706130304414855E9, 0.0, 2024-01-24 13:05:04.414
15.0, 92.4708963544108, 440.91363532608375, 1222.2946729683317, -1283.7543188901618, -0.09600000455975533, 0.12800000607967377, 1.0240000486373901, 0.0, 0.0, 0.0, 0.0, 0.0, 1.706130304414855E9, 0.0, 2024-01-24 13:05:04.414
16.0, 186.00392429623753, 550.9957205718383, 1033.8373743011616, -1134.139621162787, -0.09600000455975533, 0.12800000607967377, 1.0240000486373901, 0.0, 0.0, 0.0, 0.0, 0.0, 1.706130304419881E9, 0.0, 2024-01-24 13:05:04.419
16.0, -13.323393592145294, 369.1898339758627, 965.5037922607735, -1092.8735650517046, -0.09600000455975533, 0.12800000607967377, 1.0240000486373901, 0.0, 0.0, 0.0, 0.0, 0.0, 1.706130304419881E9, 0.0, 2024-01-24 13:05:04.419
17.0, -4.108280101325363, 390.03229642892256, 735.7879172824323, -1218.4631454637274, -0.09600000455975533, 0.12800000607967377, 1.0240000486373901, 0.0, 0.0, 0.0, 0.0, 0.0, 1.706130304425699E9, 0.0, 2024-01-24 13:05:04.425
17.0, -217.05444367835298, 191.1855556848459, 588.2563438303769, -1219.8356887474656, -0.09600000455975533, 0.12800000607967377, 1.0240000486373901, 0.0, 0.0, 0.0, 0.0, 0.0, 1.706130304425699E9, 0.0, 2024-01-24 13:05:04.425
18.0, -147.4586454029195, 261.8734047473408, 375.0577370063402, -1126.9440536480397, -0.09600000455975533, 0.12800000607967377, 1.0240000486373901, 0.0, 0.0, 0.0, 0.0, 0.0, 1.706130304431836E9, 0.0, 2024-01-24 13:05:04.431
18.0, -183.28127712849528, 231.8176987534389, 177.32735639903694, -1155.969417204149, -0.09600000455975533, 0.12800000607967377, 1.0240000486373901, 0.0, 0.0, 0.0, 0.0, 0.0, 1.706130304431836E9, 0.0, 2024-01-24 13:05:04.431
19.0, 58.58366285590455, -6.638322421349585, 304.9495724369772, -1140.413303338457, -0.09600000455975533, 0.12800000607967377, 1.0240000486373901, 0.0, 0.0, 0.0, 0.0, 0.0, 1.706130304444004E9, 0.0, 2024-01-24 13:05:04.444
19.0, 143.65516714798287, 80.67712184414268, 153.53411288093776, -1378.0932952724397, -0.09600000455975533, 0.12800000607967377, 1.0240000486373901, 0.0, 0.0, 0.0, 0.0, 0.0, 1.706130304444004E9, 0.0, 2024-01-24 13:05:04.444
20.0, -90.24378593079746, -154.0595688247122, 363.18542459700257, -1309.6531260833144, -0.09600000455975533, 0.12800000607967377, 1.0240000486373901, 0.0, 0.0, 0.0, 0.0, 0.0, 1.706130304459875E9, 0.0, 2024-01-24 13:05:04.459
20.0, -59.87018844066188, -124.97623681928962, 167.58491701446474, -1329.7214292455465, -0.09600000455975533, 0.12800000607967377, 1.0240000486373901, 0.0, 0.0, 0.0, 0.0, 0.0, 1.706130304459875E9, 0.0, 2024-01-24 13:05:04.459
21.0, 37.993643649853766, -28.249334315303713, -33.573081902228296, -1186.3000058447942, -0.09600000455975533, 0.12800000607967377, 1.0240000486373901, 0.0, 0.0, 0.0, 0.0, 0.0, 1.70613030446435E9, 0.0, 2024-01-24 13:05:04.464
21.0, -146.09358191909268, -219.65180419757962, -124.0019928808324, -1178.524753836915, -0.09600000455975533, 0.12800000607967377, 1.0240000486373901, 0.0, 0.0, 0.0, 0.0, 0.0, 1.70613030446435E9, 0.0, 2024-01-24 13:05:04.464
22.0, -152.26815674593672, -212.33655988425016, -364.8665096270852, -1329.5007751481608, -0.09600000455975533, 0.12800000607967377, 1.0240000486373901, 0.0, 0.0, 0.0, 0.0, 0.0, 1.706130304467852E9, 0.0, 2024-01-24 13:05:04.467
22.0, -387.3171290610917, -450.45599006302655, -550.7993758241646, -1369.3494091760367, -0.09600000455975533, 0.12800000607967377, 1.0240000486373901, 0.0, 0.0, 0.0, 0.0, 0.0, 1.706130304467852E9, 0.0, 2024-01-24 13:05:04.467
23.0, -326.2520425845869, -387.8949436042458, -770.3595524728298, -1290.867608605884, -0.09600000455975533, 0.12800000607967377, 1.0240000486373901, 0.0, 0.0, 0.0, 0.0, 0.0, 1.706130304473875E9, 0.0, 2024-01-24 13:05:04.473
23.0, -380.7741740886122, -428.2540739760734, -979.1749965487979, -1335.4359963778406, -0.09600000455975533, 0.12800000607967377, 1.0240000486373901, 0.0, 0.0, 0.0, 0.0, 0.0, 1.706130304473875E9, 0.0, 2024-01-24 13:05:04.473
24.0, -161.62538643507287, -200.77652912121266, -876.9018224105239, -1350.1038840040565, -0.09600000455975533, 0.12800000607967377, 1.0240000486373901, 0.0, 0.0, 0.0, 0.0, 0.0, 1.706130304490944E9, 0.0, 2024-01-24 13:05:04.490
24.0, -84.82654084498063, -124.21703712828457, -1029.5103100524284, -1583.7560036857612, -0.09600000455975533, 0.12800000607967377, 1.0240000486373901, 0.0, 0.0, 0.0, 0.0, 0.0, 1.706130304490944E9, 0.0, 2024-01-24 13:05:04.490
25.0, 159.12339336471632, -362.80208485154435, -831.9014761936851, -1534.782013766002, -0.09600000455975533, 0.12800000607967377, 1.0240000486373901, 0.0, 0.0, 0.0, 0.0, 0.0, 1.706130304502895E9, 0.0, 2024-01-24 13:05:04.502
25.0, 172.91053455136716, -344.39990711957216, -1038.9909564401023, -1562.363775939215, -0.09600000455975533, 0.12800000607967377, 1.0240000486373901, 0.0, 0.0, 0.0, 0.0, 0.0, 1.706130304502895E9, 0.0, 2024-01-24 13:05:04.502
26.0, 266.8063327888958, -250.88557867752388, -1246.5741034806706, -1445.6639377218671, -0.09600000455975533, 0.12800000607967377, 1.0240000486373901, 0.0, 0.0, 0.0, 0.0, 0.0, 1.706130304508857E9, 0.0, 2024-01-24 13:05:04.508
26.0, 63.032273853197694, -460.8416922399774, -1351.7756192842498, -1447.618035448715, -0.09600000455975533, 0.12800000607967377, 1.0240000486373901, 0.0, 0.0, 0.0, 0.0, 0.0, 1.706130304508857E9, 0.0, 2024-01-24 13:05:04.508
27.0, 63.4735820479691, -465.4529888853431, -1115.700044431258, -1611.545330306515, -0.09600000455975533, 0.12800000607967377, 1.0240000486373901, 0.0, 0.0, 0.0, 0.0, 0.0, 1.706130304519088E9, 0.0, 2024-01-24 13:05:04.519
27.0, -170.61049607861787, -705.0421997467056, -1312.3215447016992, -1666.5742182545364, -0.09600000455975533, 0.12800000607967377, 1.0240000486373901, 0.0, 0.0, 0.0, 0.0, 0.0, 1.706130304519088E9, 0.0, 2024-01-24 13:05:04.519
28.0, -124.43395132571459, -667.0111570972949, -1549.9566578362137, -1602.9024215089157, -0.09600000455975533, 0.12800000607967377, 1.0240000486373901, 0.0, 0.0, 0.0, 0.0, 0.0, 1.706130304533888E9, 0.0, 2024-01-24 13:05:04.533
28.0, -165.4662636895664, -718.2982751396485, -1770.4293700740673, -1664.1470231832936, -0.09600000455975533, 0.12800000607967377, 1.0240000486373901, 0.0, 0.0, 0.0, 0.0, 0.0, 1.706130304533888E9, 0.0, 2024-01-24 13:05:04.533
29.0, 60.223608986474574, -502.1563670504838, -1674.9179350556806, -1689.578342881985, -0.09600000455975533, 0.12800000607967377, 1.0240000486373901, 0.0, 0.0, 0.0, 0.0, 0.0, 1.70613030454999E9, 0.0, 2024-01-24 13:05:04.549
29.0, 120.42103867325932, -442.2207303605974, -1846.8504857686348, -1459.2715637106448, -0.09600000455975533, 0.12800000607967377, 1.0240000486373901, 0.0, 0.0, 0.0, 0.0, 0.0, 1.70613030454999E9, 0.0, 2024-01-24 13:05:04.549
30.0, 351.55059583485126, -218.96366260573268, -1678.012702269014, -1433.701867713593, -0.09600000455975533, 0.12800000607967377, 1.0240000486373901, 0.0, 0.0, 0.0, 0.0, 0.0, 1.70613030455688E9, 0.0, 2024-01-24 13:05:04.556
30.0, 340.47301216609776, -232.7077949428931, -1434.4760270044208, -1504.6552496729419, -0.09600000455975533, 0.12800000607967377, 1.0240000486373901, 0.0, 0.0, 0.0, 0.0, 0.0, 1.70613030455688E9, 0.0, 2024-01-24 13:05:04.556
31.0, 380.48059194209054, -187.72614822583273, -1206.082206660416, -1437.5427449680865, -0.09600000455975533, 0.12800000607967377, 1.0240000486373901, 0.0, 0.0, 0.0, 0.0, 0.0, 1.70613030456255E9, 0.0, 2024-01-24 13:05:04.562
31.0, 619.8491487060674, 41.36142355995253, -1364.618435732089, -1490.8606286863796, -0.09600000455975533, 0.12800000607967377, 1.0240000486373901, 0.0, 0.0, 0.0, 0.0, 0.0, 1.70613030456255E9, 0.0, 2024-01-24 13:05:04.562
32.0, 567.8944585216232, 0.9592843386344612, -1161.3455233904533, -1697.9949877322651, -0.09600000455975533, 0.12800000607967377, 1.0240000486373901, 0.0, 0.0, 0.0, 0.0, 0.0, 1.70613030456888E9, 0.0, 2024-01-24 13:05:04.568
32.0, 770.2884943736717, 211.4389838948846, -1402.6476084315218, -1799.3724558311515, -0.09600000455975533, 0.12800000607967377, 1.0240000486373901, 0.0, 0.0, 0.0, 0.0, 0.0, 1.70613030456888E9, 0.0, 2024-01-24 13:05:04.568
33.0, 760.6750815375708, 200.591404073406, -1201.377412516158, -1779.068538971711, -0.09600000455975533, 0.12800000607967377, 1.0240000486373901, 0.0, 0.0, 0.0, 0.0, 0.0, 1.706130304578521E9, 0.0, 2024-01-24 13:05:04.578
33.0, 664.1800528308377, 101.92349349241704, -971.8709719353355, -1881.0219516637735, -0.09600000455975533, 0.12800000607967377, 1.0240000486373901, 0.0, 0.0, 0.0, 0.0, 0.0, 1.706130304578521E9, 0.0, 2024-01-24 13:05:04.578
34.0, 834.1491560670547, 276.8217848702334, -915.1796984570101, -1946.8105317843147, -0.09600000455975533, 0.12800000607967377, 1.0240000486373901, 0.0, 0.0, 0.0, 0.0, 0.0, 1.706130304583486E9, 0.0, 2024-01-24 13:05:04.583
34.0, 847.6576747070067, 292.2264327877201, -1141.26974042831, -1763.8695855517872, -0.09600000455975533, 0.12800000607967377, 1.0240000486373901, 0.0, 0.0, 0.0, 0.0, 0.0, 1.706130304583486E9, 0.0, 2024-01-24 13:05:04.583
35.0, 1033.4409449058585, 478.9035390759818, -995.5071396552958, -1769.0773962400854, -0.09600000455975533, 0.12800000607967377, 1.0240000486373901, 0.0, 0.0, 0.0, 0.0, 0.0, 1.706130304592869E9, 0.0, 2024-01-24 13:05:04.592
35.0, 975.0199676980264, 436.75860647531226, -775.6851700097322, -1860.9742179512978, -0.09600000455975533, 0.12800000607967377, 1.0240000486373901, 0.0, 0.0, 0.0, 0.0, 0.0, 1.706130304592869E9, 0.0, 2024-01-24 13:05:04.592
36.0, 991.6456929510459, 455.6656707013026, -575.2807609341107, -1822.3335716091096, -0.09600000455975533, 0.12800000607967377, 1.0240000486373901, 0.0, 0.0, 0.0, 0.0, 0.0, 1.706130304626892E9, 0.0, 2024-01-24 13:05:04.626
36.0, 1211.7799442429096, 673.413865821436, -741.0349969202653, -1881.8634291538037, -0.09600000455975533, 0.12800000607967377, 1.0240000486373901, 0.0, 0.0, 0.0, 0.0, 0.0, 1.706130304626892E9, 0.0, 2024-01-24 13:05:04.626
37.0, 1133.0363506758586, 605.224269929342, -561.9704569918104, -2103.7068147254176, -0.09600000455975533, 0.12800000607967377, 1.0240000486373901, 0.0, 0.0, 0.0, 0.0, 0.0, 1.70613030463389E9, 0.0, 2024-01-24 13:05:04.633
37.0, 1305.3802903839387, 785.0255701490678, -336.8191299093887, -2229.326314337086, -0.09600000455975533, 0.12800000607967377, 1.0240000486373901, 0.0, 0.0, 0.0, 0.0, 0.0, 1.70613030463389E9, 0.0, 2024-01-24 13:05:04.633
38.0, 1284.9623065758497, 764.0727806473151, -137.48620217107236, -2217.4035132783465, -0.09600000455975533, 0.12800000607967377, 1.0240000486373901, 0.0, 0.0, 0.0, 0.0, 0.0, 1.706130304640226E9, 0.0, 2024-01-24 13:05:04.640
38.0, 1175.833895818796, 662.6897026984952, 87.51365896314383, -2310.0183957810514, -0.09600000455975533, 0.12800000607967377, 1.0240000486373901, 0.0, 0.0, 0.0, 0.0, 0.0, 1.706130304640226E9, 0.0, 2024-01-24 13:05:04.640
39.0, 1334.2691475916654, 829.1208605766296, 135.98463233886287, -2379.674032455776, -0.09600000455975533, 0.12800000607967377, 1.0240000486373901, 0.0, 0.0, 0.0, 0.0, 0.0, 1.706130304645018E9, 0.0, 2024-01-24 13:05:04.645
39.0, 1356.7983049247414, 853.2656546905637, -83.93457470554858, -2188.430508321617, -0.09600000455975533, 0.12800000607967377, 1.0240000486373901, 0.0, 0.0, 0.0, 0.0, 0.0, 1.706130304645018E9, 0.0, 2024-01-24 13:05:04.645
40.0, 1557.0774273518473, 1055.0856158994138, 72.17258934490383, -2164.4614895056, -0.09600000455975533, 0.12800000607967377, 1.0240000486373901, 0.0, 0.0, 0.0, 0.0, 0.0, 1.706130304668908E9, 0.0, 2024-01-24 13:05:04.668
40.0, 1521.2828448759392, 1023.3824839750305, 304.77005723910406, -2235.104459768627, -0.09600000455975533, 0.12800000607967377, 1.0240000486373901, 0.0, 0.0, 0.0, 0.0, 0.0, 1.706130304668908E9, 0.0, 2024-01-24 13:05:04.668
41.0, 1556.043345014099, 1059.653903695289, 527.2810149528086, -2171.675756520126, -0.09600000455975533, 0.12800000607967377, 1.0240000486373901, 0.0, 0.0, 0.0, 0.0, 0.0, 1.706130304701874E9, 0.0, 2024-01-24 13:05:04.701
41.0, 1315.472410414368, 1304.0040072002448, 390.6755592213012, -2197.6100927628577, -0.09600000455975533, 0.12800000607967377, 1.0240000486373901, 0.0, 0.0, 0.0, 0.0, 0.0, 1.706130304701874E9, 0.0, 2024-01-24 13:05:04.701
42.0, 1277.998612858355, 1265.2661234592088, 605.8712726216763, -2383.0193729661405, -0.09600000455975533, 0.12800000607967377, 1.0240000486373901, 0.0, 0.0, 0.0, 0.0, 0.0, 1.706130304705594E9, 0.0, 2024-01-24 13:05:04.705
42.0, 1486.3839684394188, 1479.0294551765546, 371.01303520426154, -2474.688060780056, -0.09600000455975533, 0.12800000607967377, 1.0240000486373901, 0.0, 0.0, 0.0, 0.0, 0.0, 1.706130304705594E9, 0.0, 2024-01-24 13:05:04.705
43.0, 1499.974764878396, 1480.3496398609132, 587.3512880410999, -2438.8972182041034, -0.09600000455975533, 0.12800000607967377, 1.0240000486373901, 0.0, 0.0, 0.0, 0.0, 0.0, 1.706130304710905E9, 0.0, 2024-01-24 13:05:04.710
43.0, 1430.238720354624, 1410.2470851414837, 356.99028032040223, -2498.8403346939012, -0.09600000455975533, 0.12800000607967377, 1.0240000486373901, 0.0, 0.0, 0.0, 0.0, 0.0, 1.706130304710905E9, 0.0, 2024-01-24 13:05:04.710
44.0, 1630.20556113543, 1610.9506862135604, 433.7535968609154, -2539.1564562162384, -0.09600000455975533, 0.12800000607967377, 1.0240000486373901, 0.0, 0.0, 0.0, 0.0, 0.0, 1.706130304715958E9, 0.0, 2024-01-24 13:05:04.715
44.0, 1686.225522571709, 1656.5924252728, 245.41036514239386, -2318.730492727831, -0.09600000455975533, 0.12800000607967377, 1.0240000486373901, 0.0, 0.0, 0.0, 0.0, 0.0, 1.706130304715958E9, 0.0, 2024-01-24 13:05:04.715
45.0, 1923.0733867655508, 1889.2142025167122, 440.2292336341925, -2266.8019818430766, -0.09600000455975533, 0.12800000607967377, 1.0240000486373901, 0.0, 0.0, 0.0, 0.0, 0.0, 1.706130304721862E9, 0.0, 2024-01-24 13:05:04.721
45.0, 1925.749285183847, 1886.7234291462228, 218.14649446541443, -2308.236333452165, -0.09600000455975533, 0.12800000607967377, 1.0240000486373901, 0.0, 0.0, 0.0, 0.0, 0.0, 1.706130304721862E9, 0.0, 2024-01-24 13:05:04.721
46.0, 1993.6041600299068, 1956.201420573052, -26.74963443307206, -2221.4556948803365, -0.09600000455975533, 0.12800000607967377, 1.0240000486373901, 0.0, 0.0, 0.0, 0.0, 0.0, 1.706130304726351E9, 0.0, 2024-01-24 13:05:04.726
46.0, 1776.9386659469455, 1728.462082721293, -157.20295473746955, -2223.6267068046145, -0.09600000455975533, 0.12800000607967377, 1.0240000486373901, 0.0, 0.0, 0.0, 0.0, 0.0, 1.706130304726351E9, 0.0, 2024-01-24 13:05:04.726
47.0, 1761.2722250325605, 1707.5223828693852, 83.34928036248311, -2394.1250058845617, -0.09600000455975533, 0.12800000607967377, 1.0240000486373901, 0.0, 0.0, 0.0, 0.0, 0.0, 1.706130304732187E9, 0.0, 2024-01-24 13:05:04.732
47.0, 1992.0633212481625, 1943.743813820649, -130.42340110475197, -2465.4635975393467, -0.09600000455975533, 0.12800000607967377, 1.0240000486373901, 0.0, 0.0, 0.0, 0.0, 0.0, 1.706130304732187E9, 0.0, 2024-01-24 13:05:04.732
48.0, 2032.4916397691704, 1972.1558337840252, 108.50010756449774, -2404.4396499623545, -0.09600000455975533, 0.12800000607967377, 1.0240000486373901, 0.0, 0.0, 0.0, 0.0, 0.0, 1.706130304736893E9, 0.0, 2024-01-24 13:05:04.736
48.0, 1982.419989212416, 1929.0740562444553, -94.13702178467065, -2446.607021962758, -0.09600000455975533, 0.12800000607967377, 1.0240000486373901, 0.0, 0.0, 0.0, 0.0, 0.0, 1.706130304736893E9, 0.0, 2024-01-24 13:05:04.736
49.0, 2189.3019050112925, 2142.2651832685806, -2.458984220866114, -2479.0431742784567, -0.09600000455975533, 0.12800000607967377, 1.0240000486373901, 0.0, 0.0, 0.0, 0.0, 0.0, 1.706130304740319E9, 0.0, 2024-01-24 13:05:04.740
49.0, 2243.1041057738476, 2183.0300927856006, -206.2816618559882, -2262.192555147689, -0.09600000455975533, 0.12800000607967377, 1.0240000486373901, 0.0, 0.0, 0.0, 0.0, 0.0, 1.706130304740319E9, 0.0, 2024-01-24 13:05:04.740
50.0, 2477.883805292193, 2418.531592995394, -21.478245445527136, -2218.192632168997, -0.09600000455975533, 0.12800000607967377, 1.0240000486373901, 0.0, 0.0, 0.0, 0.0, 0.0, 1.706130304760857E9, 0.0, 2024-01-24 13:05:04.760
50.0, 2466.133039631415, 2403.9908619676717, -260.00158481951803, -2283.7268990925513, -0.09600000455975533, 0.12800000607967377, 1.0240000486373901, 0.0, 0.0, 0.0, 0.0, 0.0, 1.706130304760857E9, 0.0, 2024-01-24 13:05:04.760
51.0, 2503.5750480378047, 2444.65292423591, -39.78318577865139, -2227.890192754101, -0.09600000455975533, 0.12800000607967377, 1.0240000486373901, 0.0, 0.0, 0.0, 0.0, 0.0, 1.7061303047669E9, 0.0, 2024-01-24 13:05:04.766
51.0, 2739.932985337451, 2680.5508538410068, -195.4995302837342, -2274.659511649981, -0.09600000455975533, 0.12800000607967377, 1.0240000486373901, 0.0, 0.0, 0.0, 0.0, 0.0, 1.7061303047669E9, 0.0, 2024-01-24 13:05:04.766
52.0, 2669.9557172665372, 2613.8983568307012, -12.328580203931779, -2504.9550711214542, -0.09600000455975533, 0.12800000607967377, 1.0240000486373901, 0.0, 0.0, 0.0, 0.0, 0.0, 1.70613030477107E9, 0.0, 2024-01-24 13:05:04.771
52.0, 2825.4364480744116, 2777.0608421475627, 189.76626365166157, -2668.0820273887366, -0.09600000455975533, 0.12800000607967377, 1.0240000486373901, 0.0, 0.0, 0.0, 0.0, 0.0, 1.70613030477107E9, 0.0, 2024-01-24 13:05:04.771
53.0, 2785.499926397577, 2724.1543474243954, 352.85956081934273, -2691.1927391649224, -0.09600000455975533, 0.12800000607967377, 1.0240000486373901, 0.0, 0.0, 0.0, 0.0, 0.0, 1.706130304805994E9, 0.0, 2024-01-24 13:05:04.805
53.0, 2645.341565708164, 2587.2048208969645, 541.0625462895259, -2827.1979409535415, -0.09600000455975533, 0.12800000607967377, 1.0240000486373901, 0.0, 0.0, 0.0, 0.0, 0.0, 1.706130304805994E9, 0.0, 2024-01-24 13:05:04.805
54.0, 2759.0924928104505, 2700.8510308004916, 538.5119345197454, -2953.296147759538, -0.09600000455975533, 0.12800000607967377, 1.0240000486373901, 0.0, 0.0, 0.0, 0.0, 0.0, 1.706130304811956E9, 0.0, 2024-01-24 13:05:04.811
54.0, 2717.5459442026913, 2664.4992032311857, 750.3323882101104, -2819.3254515468143, -0.09600000455975533, 0.12800000607967377, 1.0240000486373901, 0.0, 0.0, 0.0, 0.0, 0.0, 1.706130304811956E9, 0.0, 2024-01-24 13:05:04.811
55.0, 2867.1643818300217, 2813.115347670391, 857.6862164381891, -2857.5528389438987, -0.09600000455975533, 0.12800000607967377, 1.0240000486373901, 0.0, 0.0, 0.0, 0.0, 0.0, 1.706130304818871E9, 0.0, 2024-01-24 13:05:04.818
55.0, 2761.0596801871434, 2715.3842820283026, 1028.7885093609802, -3011.139310424216, -0.09600000455975533, 0.12800000607967377, 1.0240000486373901, 0.0, 0.0, 0.0, 0.0, 0.0, 1.706130304818871E9, 0.0, 2024-01-24 13:05:04.818
56.0, 2714.3745090402663, 2659.925305585377, 1167.1105791721493, -3031.342249984853, -0.09600000455975533, 0.12800000607967377, 1.0240000486373901, 0.0, 0.0, 0.0, 0.0, 0.0, 1.706130304822881E9, 0.0, 2024-01-24 13:05:04.822
56.0, 2894.2449974091724, 2836.9160709884018, 965.232649513986, -3121.217655770015, -0.09600000455975533, 0.12800000607967377, 1.0240000486373901, 0.0, 0.0, 0.0, 0.0, 0.0, 1.706130304822881E9, 0.0, 2024-01-24 13:05:04.822
57.0, 2795.242365782149, 2743.9683373896405, 1128.9112410247326, -3359.6400178452022, -0.09600000455975533, 0.12800000607967377, 1.0240000486373901, 0.0, 0.0, 0.0, 0.0, 0.0, 1.706130304833502E9, 0.0, 2024-01-24 13:05:04.833
57.0, 2942.0278291930445, 2890.147937007714, 1335.890394222457, -3507.141672097612, -0.09600000455975533, 0.12800000607967377, 1.0240000486373901, 0.0, 0.0, 0.0, 0.0, 0.0, 1.706130304833502E9, 0.0, 2024-01-24 13:05:04.833
58.0, 2921.303173588589, 2857.960488039069, 1514.882006101776, -3484.1412873701192, -0.09600000455975533, 0.12800000607967377, 1.0240000486373901, 0.0, 0.0, 0.0, 0.0, 0.0, 1.706130304850217E9, 0.0, 2024-01-24 13:05:04.850
58.0, 2838.16706752358, 2776.2305843573995, 1284.4536801818758, -3542.7305600759573, -0.09600000455975533, 0.12800000607967377, 1.0240000486373901, 0.0, 0.0, 0.0, 0.0, 0.0, 1.706130304850217E9, 0.0, 2024-01-24 13:05:04.850
59.0, 3018.4246355379, 2959.2519384389743, 1360.3343803328462, -3585.6608716673218, -0.09600000455975533, 0.12800000607967377, 1.0240000486373901, 0.0, 0.0, 0.0, 0.0, 0.0, 1.706130304855583E9, 0.0, 2024-01-24 13:05:04.855
59.0, 3073.7078366829082, 3018.570491636172, 1183.89151027333, -3827.626788950525, -0.09600000455975533, 0.12800000607967377, 1.0240000486373901, 0.0, 0.0, 0.0, 0.0, 0.0, 1.706130304855583E9, 0.0, 2024-01-24 13:05:04.855
60.0, 2879.3508458356373, 2810.5740856505, 941.6974590928294, -3699.595053867437, -0.09600000455975533, 0.12800000607967377, 1.0240000486373901, 0.0, 0.0, 0.0, 0.0, 0.0, 1.706130304879474E9, 0.0, 2024-01-24 13:05:04.879
60.0, 2940.0475521665066, 2872.6283756652847, 792.5801680595614, -3659.9465044871904, -0.09600000455975533, 0.12800000607967377, 1.0240000486373901, 0.0, 0.0, 0.0, 0.0, 0.0, 1.706130304879474E9, 0.0, 2024-01-24 13:05:04.879
61.0, 3084.297363407444, 3016.1152473152615, 629.550449191127, -3475.2852042750455, -0.09600000455975533, 0.12800000607967377, 1.0240000486373901, 0.0, 0.0, 0.0, 0.0, 0.0, 1.706130304896896E9, 0.0, 2024-01-24 13:05:04.896
61.0, 2970.434239306487, 2893.1005880227312, 609.0913264835253, -3360.5899524339475, -0.09600000455975533, 0.12800000607967377, 1.0240000486373901, 0.0, 0.0, 0.0, 0.0, 0.0, 1.706130304896896E9, 0.0, 2024-01-24 13:05:04.896
62.0, 3059.9824038455263, 2983.1311996560544, 455.67315050121397, -3419.063288241159, -0.09600000455975533, 0.12800000607967377, 1.0240000486373901, 0.0, 0.0, 0.0, 0.0, 0.0, 1.70613030490183E9, 0.0, 2024-01-24 13:05:04.901
62.0, 2887.288783491589, 2806.387267650105, 328.7409460050985, -3415.205581436865, -0.09600000455975533, 0.12800000607967377, 1.0240000486373901, 0.0, 0.0, 0.0, 0.0, 0.0, 1.70613030490183E9, 0.0, 2024-01-24 13:05:04.901
63.0, 3019.340911027044, 2924.4559092512354, 157.17864538775757, -3261.3535770596936, -0.09600000455975533, 0.12800000607967377, 1.0240000486373901, 0.0, 0.0, 0.0, 0.0, 0.0, 1.706130304907714E9, 0.0, 2024-01-24 13:05:04.907
63.0, 3073.374985586852, 2976.017909940332, 48.99642931949347, -3188.167474826798, -0.09600000455975533, 0.12800000607967377, 1.0240000486373901, 0.0, 0.0, 0.0, 0.0, 0.0, 1.706130304907714E9, 0.0, 2024-01-24 13:05:04.907
64.0, 2882.1352013526484, 2791.218233429827, 234.63945327000692, -3127.01824060129, -0.09600000455975533, 0.12800000607967377, 1.0240000486373901, 0.0, 0.0, 0.0, 0.0, 0.0, 1.706130304913978E9, 0.0, 2024-01-24 13:05:04.913
64.0, 3055.2065516021103, 2951.4804263310507, 149.08363193366677, -3275.737232289277, -0.09600000455975533, 0.12800000607967377, 1.0240000486373901, 0.0, 0.0, 0.0, 0.0, 0.0, 1.706130304913978E9, 0.0, 2024-01-24 13:05:04.913
65.0, 2931.140980422031, 2824.4266750863753, -31.809719073120505, -3088.4056435087696, -0.09600000455975533, 0.12800000607967377, 1.0240000486373901, 0.0, 0.0, 0.0, 0.0, 0.0, 1.706130304921171E9, 0.0, 2024-01-24 13:05:04.921
65.0, 3046.189652808942, 2935.978541014716, -143.41207365086302, -3020.3824731647037, -0.09600000455975533, 0.12800000607967377, 1.0240000486373901, 0.0, 0.0, 0.0, 0.0, 0.0, 1.706130304921171E9, 0.0, 2024-01-24 13:05:04.921
66.0, 3224.031245451886, 3114.354939351324, -285.23281987058, -2826.648175660055, -0.09600000455975533, 0.12800000607967377, 1.0240000486373901, 0.0, 0.0, 0.0, 0.0, 0.0, 1.706130304924314E9, 0.0, 2024-01-24 13:05:04.924
66.0, 3113.062803916633, 2993.2102300366387, -311.3354516113177, -2741.572931468021, -0.09600000455975533, 0.12800000607967377, 1.0240000486373901, 0.0, 0.0, 0.0, 0.0, 0.0, 1.706130304924314E9, 0.0, 2024-01-24 13:05:04.924
67.0, 3191.204273590818, 3077.8105069343, -485.02388535346836, -2807.4400494876318, -0.09600000455975533, 0.12800000607967377, 1.0240000486373901, 0.0, 0.0, 0.0, 0.0, 0.0, 1.706130304939519E9, 0.0, 2024-01-24 13:05:04.939
67.0, 3017.2278675520793, 2910.6070597153157, -609.6710109766573, -2804.397640873678, -0.09600000455975533, 0.12800000607967377, 1.0240000486373901, 0.0, 0.0, 0.0, 0.0, 0.0, 1.706130304939519E9, 0.0, 2024-01-24 13:05:04.939
68.0, 3133.8155087707564, 3016.917455855757, -793.526362748351, -2679.7692147502676, -0.09600000455975533, 0.12800000607967377, 1.0240000486373901, 0.0, 0.0, 0.0, 0.0, 0.0, 1.706130304943631E9, 0.0, 2024-01-24 13:05:04.943
68.0, 3149.0593409901485, 3037.1129156164825, -950.2599600413814, -2660.2319773817435, -0.09600000455975533, 0.12800000607967377, 1.0240000486373901, 0.0, 0.0, 0.0, 0.0, 0.0, 1.706130304943631E9, 0.0, 2024-01-24 13:05:04.943
69.0, 2913.464343281463, 2813.0143703715876, -820.1507105329074, -2658.442435252946, -0.09600000455975533, 0.12800000607967377, 1.0240000486373901, 0.0, 0.0, 0.0, 0.0, 0.0, 1.706130304971971E9, 0.0, 2024-01-24 13:05:04.971
69.0, 3007.982834861614, 2894.3010959085077, -983.3057160498574, -2430.8283840497024, -0.09600000455975533, 0.12800000607967377, 1.0240000486373901, 0.0, 0.0, 0.0, 0.0, 0.0, 1.706130304971971E9, 0.0, 2024-01-24 13:05:04.971
70.0, 2765.0370637900196, 2650.1473371512257, -791.463807922788, -2379.599234456662, -0.09600000455975533, 0.12800000607967377, 1.008000047877431, 0.0, 0.0, 0.0, 0.0, 0.0, 1.706130304975959E9, 0.0, 2024-01-24 13:05:04.975
70.0, 2747.5156324976124, 2638.4526699897833, -1029.4635613029823, -2475.082620225381, -0.09600000455975533, 0.12800000607967377, 1.008000047877431, 0.0, 0.0, 0.0, 0.0, 0.0, 1.706130304975959E9, 0.0, 2024-01-24 13:05:04.975
71.0, 2775.8173254122958, 2668.067067788914, -826.631957156118, -2456.308322447818, -0.09600000455975533, 0.12800000607967377, 1.008000047877431, 0.0, 0.0, 0.0, 0.0, 0.0, 1.706130304982334E9, 0.0, 2024-01-24 13:05:04.982
71.0, 2990.551161168143, 2885.819002809003, -1008.8118337476626, -2531.0483531123027, -0.09600000455975533, 0.12800000607967377, 1.008000047877431, 0.0, 0.0, 0.0, 0.0, 0.0, 1.706130304982334E9, 0.0, 2024-01-24 13:05:04.982
72.0, 2899.155486050993, 2803.9563326789066, -843.4465473568998, -2773.150776743889, -0.09600000455975533, 0.12800000607967377, 1.008000047877431, 0.0, 0.0, 0.0, 0.0, 0.0, 1.706130304987182E9, 0.0, 2024-01-24 13:05:04.987
72.0, 3041.3072134167887, 2950.019995398354, -662.2128654541448, -2971.1523000979796, -0.09600000455975533, 0.12800000607967377, 1.008000047877431, 0.0, 0.0, 0.0, 0.0, 0.0, 1.706130304987182E9, 0.0, 2024-01-24 13:05:04.987
73.0, 2973.2055051736534, 2879.330276385881, -524.1843777894974, -3025.614593202714, -0.09600000455975533, 0.12800000607967377, 1.008000047877431, 0.0, 0.0, 0.0, 0.0, 0.0, 1.706130305061234E9, 0.0, 2024-01-24 13:05:05.061
73.0, 2821.296378823463, 2730.2672139019705, -339.18274668138474, -3166.313369435724, -0.09600000455975533, 0.12800000607967377, 1.008000047877431, 0.0, 0.0, 0.0, 0.0, 0.0, 1.706130305061234E9, 0.0, 2024-01-24 13:05:05.061
74.0, 2902.5662748105824, 2823.4225119482726, -369.6554515203461, -3356.423703883309, -0.09600000455975533, 0.12800000607967377, 1.008000047877431, 0.0, 0.0, 0.0, 0.0, 0.0, 1.706130305067956E9, 0.0, 2024-01-24 13:05:05.067
74.0, 2796.607429265976, 2712.893508657813, -236.99372029211372, -3334.833261439111, -0.09600000455975533, 0.12800000607967377, 1.008000047877431, 0.0, 0.0, 0.0, 0.0, 0.0, 1.706130305067956E9, 0.0, 2024-01-24 13:05:05.067
75.0, 2835.502388805151, 2754.3764789663255, -223.38422435335815, -3475.2272358257324, -0.09600000455975533, 0.12800000607967377, 1.008000047877431, 0.0, 0.0, 0.0, 0.0, 0.0, 1.706130305075868E9, 0.0, 2024-01-24 13:05:05.075
75.0, 2640.9453133102506, 2559.662327673286, -131.24617909500375, -3708.6792708598077, -0.09600000455975533, 0.12800000607967377, 1.008000047877431, 0.0, 0.0, 0.0, 0.0, 0.0, 1.706130305075868E9, 0.0, 2024-01-24 13:05:05.075
76.0, 2517.9063446680084, 2442.94378995616, -61.89908416662365, -3808.549559276551, -0.09600000455975533, 0.12800000607967377, 1.008000047877431, 0.0, 0.0, 0.0, 0.0, 0.0, 1.706130305081563E9, 0.0, 2024-01-24 13:05:05.081
76.0, 2639.845782723278, 2562.8075835360214, 175.55090392008424, -3933.6623024442233, -0.09600000455975533, 0.12800000607967377, 1.008000047877431, 0.0, 0.0, 0.0, 0.0, 0.0, 1.706130305081563E9, 0.0, 2024-01-24 13:05:05.081
77.0, 2482.582989586517, 2405.009984705597, 276.34681757586077, -3733.351390867494, -0.09600000455975533, 0.12800000607967377, 1.008000047877431, 0.0, 0.0, 0.0, 0.0, 0.0, 1.706130305106874E9, 0.0, 2024-01-24 13:05:05.106
77.0, 2557.6334319473244, 2483.6619507237338, 410.72703283373266, -3949.8915983019397, -0.09600000455975533, 0.12800000607967377, 1.008000047877431, 0.0, 0.0, 0.0, 0.0, 0.0, 1.706130305106874E9, 0.0, 2024-01-24 13:05:05.106
78.0, 2500.0670218793675, 2419.3712005354464, 564.8632696075365, -3934.6589857824147, -0.09600000455975533, 0.12800000607967377, 1.008000047877431, 0.0, 0.0, 0.0, 0.0, 0.0, 1.706130305111543E9, 0.0, 2024-01-24 13:05:05.111
78.0, 2416.201635322999, 2327.741781671066, 338.49647503951564, -3960.2399014793336, -0.09600000455975533, 0.12800000607967377, 1.008000047877431, 0.0, 0.0, 0.0, 0.0, 0.0, 1.706130305111543E9, 0.0, 2024-01-24 13:05:05.111
79.0, 2589.708683917299, 2502.677472048439, 402.09908363595605, -4010.7734296806157, -0.09600000455975533, 0.12800000607967377, 1.008000047877431, 0.0, 0.0, 0.0, 0.0, 0.0, 1.706130305118004E9, 0.0, 2024-01-24 13:05:05.118
79.0, 2667.4574640961364, 2565.634947902523, 241.18427819246426, -4215.85271370085, -0.09600000455975533, 0.12800000607967377, 1.008000047877431, 0.0, 0.0, 0.0, 0.0, 0.0, 1.706130305118004E9, 0.0, 2024-01-24 13:05:05.118
83.0, 2887.9619654836133, 2783.8618502169847, 175.21431292407215, -4443.86880414933, -0.09600000455975533, 0.12800000607967377, 1.008000047877431, 0.0, 0.0, 0.0, 0.0, 0.0, 1.706130305123863E9, 0.0, 2024-01-24 13:05:05.123
83.0, 3055.752576995641, 2952.3742624204606, 175.16382427467033, -4266.403071451932, -0.09600000455975533, 0.12800000607967377, 1.008000047877431, 0.0, 0.0, 0.0, 0.0, 0.0, 1.706130305123863E9, 0.0, 2024-01-24 13:05:05.123
84.0, 2947.422634879127, 2852.8368250997737, -65.88394756941125, -4166.6580696837045, -0.09600000455975533, 0.12800000607967377, 1.008000047877431, 0.0, 0.0, 0.0, 0.0, 0.0, 1.706130305135317E9, 0.0, 2024-01-24 13:05:05.135
84.0, 3156.109052406624, 3066.5496681677178, -102.98936497978866, -4286.912682808936, -0.09600000455975533, 0.12800000607967377, 1.008000047877431, 0.0, 0.0, 0.0, 0.0, 0.0, 1.706130305135317E9, 0.0, 2024-01-24 13:05:05.135
85.0, 3091.089021726977, 3000.770437797066, -212.2337126354687, -4524.835768240038, -0.09600000455975533, 0.12800000607967377, 1.008000047877431, 0.0, 0.0, 0.0, 0.0, 0.0, 1.706130305140341E9, 0.0, 2024-01-24 13:05:05.140
85.0, 3254.389883342199, 3170.088798440993, -286.4595070560463, -4448.446441695094, -0.09600000455975533, 0.12800000607967377, 1.008000047877431, 0.0, 0.0, 0.0, 0.0, 0.0, 1.706130305140341E9, 0.0, 2024-01-24 13:05:05.140
86.0, 3434.105165862944, 3344.4672437249683, -430.71866804687306, -4272.760901376605, -0.09600000455975533, 0.12800000607967377, 1.008000047877431, 0.0, 0.0, 0.0, 0.0, 0.0, 1.70613030514416E9, 0.0, 2024-01-24 13:05:05.144
86.0, 3335.403596182354, 3248.578078811057, -432.92333907075226, -4153.90688078478, -0.09600000455975533, 0.12800000607967377, 1.008000047877431, 0.0, 0.0, 0.0, 0.0, 0.0, 1.70613030514416E9, 0.0, 2024-01-24 13:05:05.144
88.0, 3408.570998915471, 3314.280641232617, -660.7187754218467, -4053.4793472746387, -0.09600000455975533, 0.12800000607967377, 1.008000047877431, 0.0, 0.0, 0.0, 0.0, 0.0, 1.706130305147687E9, 0.0, 2024-01-24 13:05:05.147
88.0, 3402.8732613329776, 3324.4531691120937, -808.5327113205567, -4032.0385008286685, -0.09600000455975533, 0.12800000607967377, 1.008000047877431, 0.0, 0.0, 0.0, 0.0, 0.0, 1.706130305147687E9, 0.0, 2024-01-24 13:05:05.147
89.0, 3646.1481436006725, 3568.532129870262, -707.1346737719141, -4078.465618878603, -0.09600000455975533, 0.12800000607967377, 1.008000047877431, 0.0, 0.0, 0.0, 0.0, 0.0, 1.706130305152299E9, 0.0, 2024-01-24 13:05:05.152
89.0, 3710.4407637389377, 3634.862995484378, -890.0251313550398, -3850.6832721773535, -0.09600000455975533, 0.12800000607967377, 1.008000047877431, 0.0, 0.0, 0.0, 0.0, 0.0, 1.706130305152299E9, 0.0, 2024-01-24 13:05:05.152
90.0, 3491.8454812788405, 3413.227174360305, -648.9287408115342, -3734.3611638555303, -0.09600000455975533, 0.12800000607967377, 1.0240000486373901, 0.0, 0.0, 0.0, 0.0, 0.0, 1.706130305157288E9, 0.0, 2024-01-24 13:05:05.157
90.0, 3528.599348093383, 3456.44358829828, -826.7834231043234, -3766.685119172558, -0.09600000455975533, 0.12800000607967377, 1.0240000486373901, 0.0, 0.0, 0.0, 0.0, 0.0, 1.706130305157288E9, 0.0, 2024-01-24 13:05:05.157
91.0, 3588.290021336172, 3521.6468740757555, -606.5949432631023, -3705.7733685942367, -0.09600000455975533, 0.12800000607967377, 1.0240000486373901, 0.0, 0.0, 0.0, 0.0, 0.0, 1.706130305162607E9, 0.0, 2024-01-24 13:05:05.162
91.0, 3382.0064895302057, 3314.7686981768347, -695.8158665560186, -3666.837270155549, -0.09600000455975533, 0.12800000607967377, 1.0240000486373901, 0.0, 0.0, 0.0, 0.0, 0.0, 1.706130305162607E9, 0.0, 2024-01-24 13:05:05.162
92.0, 3408.7953929128125, 3350.320187155623, -908.7732498329133, -3796.5407405188307, -0.09600000455975533, 0.12800000607967377, 1.0240000486373901, 0.0, 0.0, 0.0, 0.0, 0.0, 1.706130305223038E9, 0.0, 2024-01-24 13:05:05.223
92.0, 3642.331575695891, 3587.1699212994426, -1134.7118258560076, -3910.6002093674615, -0.09600000455975533, 0.12800000607967377, 1.0240000486373901, 0.0, 0.0, 0.0, 0.0, 0.0, 1.706130305223038E9, 0.0, 2024-01-24 13:05:05.223
93.0, 3668.189243989531, 3609.571922034025, -896.3941809795797, -3842.608828173019, -0.09600000455975533, 0.12800000607967377, 1.0240000486373901, 0.0, 0.0, 0.0, 0.0, 0.0, 1.706130305226975E9, 0.0, 2024-01-24 13:05:05.226
93.0, 3629.4794094981626, 3582.0443884101696, -1080.2570125511847, -3856.8615869041532, -0.09600000455975533, 0.12800000607967377, 1.0240000486373901, 0.0, 0.0, 0.0, 0.0, 0.0, 1.706130305226975E9, 0.0, 2024-01-24 13:05:05.226
94.0, 3849.13308364572, 3802.3787243496627, -992.6928649386391, -3916.5092512974516, -0.09600000455975533, 0.12800000607967377, 1.0240000486373901, 0.0, 0.0, 0.0, 0.0, 0.0, 1.70613030527183E9, 0.0, 2024-01-24 13:05:05.271
94.0, 3880.0994552788325, 3829.6351152267307, -1200.2068238300271, -3730.1836956050247, -0.09600000455975533, 0.12800000607967377, 1.0240000486373901, 0.0, 0.0, 0.0, 0.0, 0.0, 1.70613030527183E9, 0.0, 2024-01-24 13:05:05.271
95.0, 4116.917400273029, 4067.33567661047, -996.4720338438638, -3651.690675335005, -0.09600000455975533, 0.12800000607967377, 1.0240000486373901, 0.0, 0.0, 0.0, 0.0, 0.0, 1.70613030527732E9, 0.0, 2024-01-24 13:05:05.277
95.0, 4117.55879311543, 4082.0914518856443, -1210.8356195040978, -3712.284534417093, -0.09600000455975533, 0.12800000607967377, 1.0240000486373901, 0.0, 0.0, 0.0, 0.0, 0.0, 1.70613030527732E9, 0.0, 2024-01-24 13:05:05.277
96.0, 4153.2954071420245, 4118.336692306213, -998.3251542719081, -3673.45689307712, -0.09600000455975533, 0.12800000607967377, 1.0240000486373901, 0.0, 0.0, 0.0, 0.0, 0.0, 1.706130305282826E9, 0.0, 2024-01-24 13:05:05.282
96.0, 3915.551836908795, 4360.124964341521, -1140.207608840894, -3702.95909387758, -0.09600000455975533, 0.12800000607967377, 1.0240000486373901, 0.0, 0.0, 0.0, 0.0, 0.0, 1.706130305282826E9, 0.0, 2024-01-24 13:05:05.282
97.0, 3853.727550741285, 4307.99449885916, -935.3265395183116, -3919.4058038131334, -0.09600000455975533, 0.12800000607967377, 1.0240000486373901, 0.0, 0.0, 0.0, 0.0, 0.0, 1.706130305288357E9, 0.0, 2024-01-24 13:05:05.288
97.0, 4022.73549968889, 4481.710981850978, -726.0697872475721, -4087.873337217141, -0.09600000455975533, 0.12800000607967377, 1.0240000486373901, 0.0, 0.0, 0.0, 0.0, 0.0, 1.706130305288357E9, 0.0, 2024-01-24 13:05:05.288
98.0, 3997.3397090397775, 4451.524379358627, -541.737598231528, -4077.839185636025, -0.09600000455975533, 0.12800000607967377, 1.0240000486373901, 0.0, 0.0, 0.0, 0.0, 0.0, 1.706130305292963E9, 0.0, 2024-01-24 13:05:05.292
98.0, 3915.53874725895, 4379.933344456833, -752.1013608891517, -4105.555584207643, -0.09600000455975533, 0.12800000607967377, 1.0240000486373901, 0.0, 0.0, 0.0, 0.0, 0.0, 1.706130305292963E9, 0.0, 2024-01-24 13:05:05.292
100.0, 3686.62882072106, 4161.3642412964255, -509.7147048609331, -3976.71229083417, -0.09600000455975533, 0.12800000607967377, 1.0240000486373901, 0.0, 0.0, 0.0, 0.0, 0.0, 1.706130305298864E9, 0.0, 2024-01-24 13:05:05.298
100.0, 3742.5010561090894, 4226.990135768894, -661.113334867172, -3958.848658695817, -0.09600000455975533, 0.12800000607967377, 1.0240000486373901, 0.0, 0.0, 0.0, 0.0, 0.0, 1.706130305298864E9, 0.0, 2024-01-24 13:05:05.298
0.0, 876.0940040200949, 886.3544195485301, 932.9479631464928, 965.8310335068963, -0.09600000455975533, 0.12800000607967377, 1.0240000486373901, 0.0, 0.0, 0.0, 0.0, 0.0, 1.706130305303282E9, 0.0, 2024-01-24 13:05:05.303
4.0, 856.5380671517923, 852.7476785467006, 1134.4088939595968, 1070.9745808611624, -0.09600000455975533, 0.12800000607967377, 1.0240000486373901, 0.0, 0.0, 0.0, 0.0, 0.0, 1.706130305308837E9, 0.0, 2024-01-24 13:05:05.308
4.0, 1000.2699022488669, 991.8158583990298, 1236.1566121540964, 1047.8788286847994, -0.09600000455975533, 0.12800000607967377, 1.0240000486373901, 0.0, 0.0, 0.0, 0.0, 0.0, 1.706130305308837E9, 0.0, 2024-01-24 13:05:05.308
5.0, 920.7858084905893, 916.8607834870927, 1430.7641762983985, 923.5682940576226, -0.09600000455975533, 0.12800000607967377, 1.0240000486373901, 0.0, 0.0, 0.0, 0.0, 0.0, 1.706130305317986E9, 0.0, 2024-01-24 13:05:05.317
5.0, 908.6722725341097, 897.054273321759, 1566.2327024433762, 918.4558508181944, -0.09600000455975533, 0.12800000607967377, 1.0240000486373901, 0.0, 0.0, 0.0, 0.0, 0.0, 1.706130305317986E9, 0.0, 2024-01-24 13:05:05.317
6.0, 1120.4553272249177, 1099.2145654265769, 1379.8080394021235, 890.1055392040871, -0.09600000455975533, 0.12800000607967377, 1.0240000486373901, 0.0, 0.0, 0.0, 0.0, 0.0, 1.706130305323966E9, 0.0, 2024-01-24 13:05:05.323
6.0, 1101.4902945496142, 1094.2255388856865, 1138.348878562916, 775.8403758578934, -0.09600000455975533, 0.12800000607967377, 1.0240000486373901, 0.0, 0.0, 0.0, 0.0, 0.0, 1.706130305323966E9, 0.0, 2024-01-24 13:05:05.323
7.0, 858.677289926447, 855.0888559189625, 929.894334832672, 713.7468168935739, -0.09600000455975533, 0.12800000607967377, 1.0240000486373901, 0.0, 0.0, 0.0, 0.0, 0.0, 1.706130305327947E9, 0.0, 2024-01-24 13:05:05.327
7.0, 915.6135268518701, 907.2305411011912, 685.2469092812389, 813.5871861106716, -0.09600000455975533, 0.12800000607967377, 1.0240000486373901, 0.0, 0.0, 0.0, 0.0, 0.0, 1.706130305327947E9, 0.0, 2024-01-24 13:05:05.327
8.0, 887.8915184303187, 888.6338885715231, 505.2960130632855, 814.8811914953403, -0.09600000455975533, 0.12800000607967377, 1.0240000486373901, 0.0, 0.0, 0.0, 0.0, 0.0, 1.706130305361849E9, 0.0, 2024-01-24 13:05:05.361
8.0, 1117.2764122625813, 1116.5340421213768, 605.7478559231386, 781.6970591885038, -0.09600000455975533, 0.12800000607967377, 1.0240000486373901, 0.0, 0.0, 0.0, 0.0, 0.0, 1.706130305361849E9, 0.0, 2024-01-24 13:05:05.361
9.0, 1166.9123644744977, 1159.7149270097725, 395.1036007688381, 984.3435382875614, -0.09600000455975533, 0.12800000607967377, 1.0240000486373901, 0.0, 0.0, 0.0, 0.0, 0.0, 1.706130305369165E9, 0.0, 2024-01-24 13:05:05.369
9.0, 1402.1595514873043, 1389.3373044892214, 590.775166450534, 1056.9836151269265, -0.09600000455975533, 0.12800000607967377, 1.0240000486373901, 0.0, 0.0, 0.0, 0.0, 0.0, 1.706130305369165E9, 0.0, 2024-01-24 13:05:05.369
10.0, 1419.6117946305312, 1414.65829713922, 401.14727909723297, 1026.83628158411, -0.09600000455975533, 0.12800000607967377, 1.0240000486373901, 0.0, 0.0, 0.0, 0.0, 0.0, 1.706130305376173E9, 0.0, 2024-01-24 13:05:05.376
10.0, 1481.666084645316, 1477.5017060446553, 623.1720498166978, 1086.910294572357, -0.09600000455975533, 0.12800000607967377, 1.0240000486373901, 0.0, 0.0, 0.0, 0.0, 0.0, 1.706130305376173E9, 0.0, 2024-01-24 13:05:05.376
11.0, 1284.9866159255616, 1269.0527721643448, 527.5072789001279, 1126.2465623063035, -0.09600000455975533, 0.12800000607967377, 1.0240000486373901, 0.0, 0.0, 0.0, 0.0, 0.0, 1.706130305379855E9, 0.0, 2024-01-24 13:05:05.379
11.0, 1322.0789436860941, 1326.3069005860016, 350.4529351978563, 1053.1913565718569, -0.09600000455975533, 0.12800000607967377, 1.0240000486373901, 0.0, 0.0, 0.0, 0.0, 0.0, 1.706130305379855E9, 0.0, 2024-01-24 13:05:05.379
12.0, 1127.458289891947, 1138.5489632105455, 191.6680027791299, 1020.7701638559811, -0.09600000455975533, 0.12800000607967377, 1.0240000486373901, 0.0, 0.0, 0.0, 0.0, 0.0, 1.706130305387803E9, 0.0, 2024-01-24 13:05:05.387
12.0, 1235.5376587114297, 1227.5436225561425, 4.802031543105841, 1167.3480628193356, -0.09600000455975533, 0.12800000607967377, 1.0240000486373901, 0.0, 0.0, 0.0, 0.0, 0.0, 1.706130305387803E9, 0.0, 2024-01-24 13:05:05.387
13.0, 1269.9709176034667, 1267.2426605857909, -100.72485555661842, 1251.8810215177946, -0.09600000455975533, 0.12800000607967377, 1.0240000486373901, 0.0, 0.0, 0.0, 0.0, 0.0, 1.706130305418838E9, 0.0, 2024-01-24 13:05:05.418
13.0, 1100.4823915115558, 1096.149717412889, 90.31110412999988, 1304.6566197425127, -0.09600000455975533, 0.12800000607967377, 1.0240000486373901, 0.0, 0.0, 0.0, 0.0, 0.0, 1.706130305418838E9, 0.0, 2024-01-24 13:05:05.418
14.0, 1215.2337418519892, 1197.411248613149, -60.68922653095797, 1068.0911179953255, -0.09600000455975533, 0.12800000607967377, 1.0240000486373901, 0.0, 0.0, 0.0, 0.0, 0.0, 1.706130305448831E9, 0.0, 2024-01-24 13:05:05.448
14.0, 1039.2134804874659, 1028.0592288696207, -267.1223543351516, 1230.7169276685454, -0.09600000455975533, 0.12800000607967377, 1.0240000486373901, 0.0, 0.0, 0.0, 0.0, 0.0, 1.706130305448831E9, 0.0, 2024-01-24 13:05:05.448
15.0, 1108.1903253202327, 1121.356643114239, -407.3686026735231, 1239.369186216034, -0.09600000455975533, 0.12800000607967377, 1.0240000486373901, 0.0, 0.0, 0.0, 0.0, 0.0, 1.706130305571186E9, 0.0, 2024-01-24 13:05:05.571
15.0, 1197.0297788176686, 1210.1736572119407, -164.6173063996248, 1300.5464696912095, -0.09600000455975533, 0.12800000607967377, 1.0240000486373901, 0.0, 0.0, 0.0, 0.0, 0.0, 1.706130305571186E9, 0.0, 2024-01-24 13:05:05.571
16.0, 969.7467087605037, 980.2315182862803, -297.19488987885416, 1272.7908021700568, -0.09600000455975533, 0.12800000607967377, 1.0240000486373901, 0.0, 0.0, 0.0, 0.0, 0.0, 1.706130305577166E9, 0.0, 2024-01-24 13:05:05.577
16.0, 925.5373513842933, 950.0318261440843, -74.55677556665614, 1078.9368278668262, -0.09600000455975533, 0.12800000607967377, 1.0240000486373901, 0.0, 0.0, 0.0, 0.0, 0.0, 1.706130305577166E9, 0.0, 2024-01-24 13:05:05.577
17.0, 1091.8712718635798, 1128.8158735758625, 121.82350115664303, 878.8035615379922, -0.09600000455975533, 0.12800000607967377, 1.0240000486373901, 0.0, 0.0, 0.0, 0.0, 0.0, 1.706130305582934E9, 0.0, 2024-01-24 13:05:05.582
17.0, 1034.2263238965534, 1049.8647155612707, 248.44529395643622, 828.1372668882832, -0.09600000455975533, 0.12800000607967377, 1.0240000486373901, 0.0, 0.0, 0.0, 0.0, 0.0, 1.706130305582934E9, 0.0, 2024-01-24 13:05:05.582
18.0, 875.0842310320586, 901.6954891667701, 444.3936122348532, 692.5097949951887, -0.09600000455975533, 0.12800000607967377, 1.0240000486373901, 0.0, 0.0, 0.0, 0.0, 0.0, 1.706130305600854E9, 0.0, 2024-01-24 13:05:05.600
18.0, 974.735735301394, 1007.6749041611329, 421.32964920811355, 515.0777213973925, -0.09600000455975533, 0.12800000607967377, 1.0240000486373901, 0.0, 0.0, 0.0, 0.0, 0.0, 1.706130305600854E9, 0.0, 2024-01-24 13:05:05.600
19.0, 914.287732317578, 931.7025764612481, 591.8466477878392, 605.815174122341, -0.09600000455975533, 0.12800000607967377, 1.0240000486373901, 0.0, 0.0, 0.0, 0.0, 0.0, 1.706130305604429E9, 0.0, 2024-01-24 13:05:05.604
19.0, 1047.4693096396513, 1066.0884015690535, 685.8565129740164, 586.0292334067635, -0.09600000455975533, 0.12800000607967377, 1.0240000486373901, 0.0, 0.0, 0.0, 0.0, 0.0, 1.706130305604429E9, 0.0, 2024-01-24 13:05:05.604
20.0, 926.8762355684303, 953.4052159041166, 854.9953584200703, 405.8445934415795, -0.09600000455975533, 0.12800000607967377, 1.0240000486373901, 0.0, 0.0, 0.0, 0.0, 0.0, 1.706130305609831E9, 0.0, 2024-01-24 13:05:05.609
20.0, 849.6697408831678, 882.9716800386086, 945.6299638962373, 326.3305804836564, -0.09600000455975533, 0.12800000607967377, 1.0240000486373901, 0.0, 0.0, 0.0, 0.0, 0.0, 1.706130305609831E9, 0.0, 2024-01-24 13:05:05.609
22.0, 973.3388826679438, 1013.5259776418097, 1113.916112152394, 116.62691016821191, -0.09600000455975533, 0.12800000607967377, 1.0240000486373901, 0.0, 0.0, 0.0, 0.0, 0.0, 1.706130305616959E9, 0.0, 2024-01-24 13:05:05.616
22.0, 934.6851466759108, 966.5434844484553, 1285.1436917237006, 127.76059233630076, -0.09600000455975533, 0.12800000607967377, 1.0240000486373901, 0.0, 0.0, 0.0, 0.0, 0.0, 1.706130305616959E9, 0.0, 2024-01-24 13:05:05.616
34.0, 920.8063779403456, 927.3119339132681, 1451.6440377510153, 180.52310091117397, -0.09600000455975533, 0.12800000607967377, 1.0240000486373901, 0.0, 0.0, 0.0, 0.0, 0.0, 1.706130305619818E9, 0.0, 2024-01-24 13:05:05.619
34.0, 1030.1236536451615, 1031.9805139731616, 1494.727685240563, 87.40894176438451, -0.09600000455975533, 0.12800000607967377, 1.0240000486373901, 0.0, 0.0, 0.0, 0.0, 0.0, 1.706130305619818E9, 0.0, 2024-01-24 13:05:05.619
35.0, 861.656120241154, 868.5394061096013, 1599.2410594522953, 319.2098109680228, -0.09600000455975533, 0.12800000607967377, 1.0240000486373901, 0.0, 0.0, 0.0, 0.0, 0.0, 1.706130305624938E9, 0.0, 2024-01-24 13:05:05.624
35.0, 763.3341504060663, 768.2128498982638, 1666.699504903052, 218.03803736669943, -0.09600000455975533, 0.12800000607967377, 1.0240000486373901, 0.0, 0.0, 0.0, 0.0, 0.0, 1.706130305624938E9, 0.0, 2024-01-24 13:05:05.624
36.0, 914.770179411862, 912.2550966916606, 1429.5505787627771, 123.80564813315868, -0.09600000455975533, 0.12800000607967377, 1.0240000486373901, 0.0, 0.0, 0.0, 0.0, 0.0, 1.706130305630355E9, 0.0, 2024-01-24 13:05:05.630
36.0, 826.5085404575802, 837.9395446721464, 1650.1504475991242, -49.740669410675764, -0.09600000455975533, 0.12800000607967377, 1.0240000486373901, 0.0, 0.0, 0.0, 0.0, 0.0, 1.706130305630355E9, 0.0, 2024-01-24 13:05:05.630
37.0, 1035.3838229328394, 1059.4669086975046, 1429.7469235104509, -134.90567120164633, -0.09600000455975533, 0.12800000607967377, 1.0240000486373901, 0.0, 0.0, 0.0, 0.0, 0.0, 1.706130305661559E9, 0.0, 2024-01-24 13:05:05.661
37.0, 1070.1200137212873, 1080.4552272488363, 1640.6511017116718, -68.55610608775169, -0.09600000455975533, 0.12800000607967377, 1.0240000486373901, 0.0, 0.0, 0.0, 0.0, 0.0, 1.706130305661559E9, 0.0, 2024-01-24 13:05:05.661
38.0, 992.0365124964155, 998.2204370731488, 1414.7443148382008, -118.70816449355334, -0.09600000455975533, 0.12800000607967377, 1.0240000486373901, 0.0, 0.0, 0.0, 0.0, 0.0, 1.706130305666919E9, 0.0, 2024-01-24 13:05:05.666
38.0, 1189.9164891019464, 1209.3583590216003, 1506.3101554033346, -168.7854249002412, -0.09600000455975533, 0.12800000607967377, 1.0240000486373901, 0.0, 0.0, 0.0, 0.0, 0.0, 1.706130305666919E9, 0.0, 2024-01-24 13:05:05.666
39.0, 1214.1547807147726, 1217.335565627087, 1746.1125405621715, 0.4300884949043393, -0.09600000455975533, 0.12800000607967377, 1.0240000486373901, 0.0, 0.0, 0.0, 0.0, 0.0, 1.706130305672836E9, 0.0, 2024-01-24 13:05:05.672
39.0, 1380.4643918443471, 1360.289501533378, 1831.2812822530977, -37.5916044046171, -0.09600000455975533, 0.12800000607967377, 1.0240000486373901, 0.0, 0.0, 0.0, 0.0, 0.0, 1.706130305672836E9, 0.0, 2024-01-24 13:05:05.672
40.0, 1234.2978818761185, 1235.062691417057, 1979.6412435453385, -262.71862213732675, -0.09600000455975533, 0.12800000607967377, 1.0240000486373901, 0.0, 0.0, 0.0, 0.0, 0.0, 1.706130305678824E9, 0.0, 2024-01-24 13:05:05.678
40.0, 1147.588301403448, 1144.3252386921085, 2068.159065646585, -331.4654631228186, -0.09600000455975533, 0.12800000607967377, 1.0240000486373901, 0.0, 0.0, 0.0, 0.0, 0.0, 1.706130305678824E9, 0.0, 2024-01-24 13:05:05.678
41.0, 1343.7123949797824, 1334.5814292379655, 1886.046507254243, -357.9046858595684, -0.09600000455975533, 0.12800000607967377, 1.0240000486373901, 0.0, 0.0, 0.0, 0.0, 0.0, 1.706130305690184E9, 0.0, 2024-01-24 13:05:05.690
41.0, 1279.7862850371748, 1286.561113806907, 2110.711647342425, -540.4417228968814, -0.09600000455975533, 0.12800000607967377, 1.0240000486373901, 0.0, 0.0, 0.0, 0.0, 0.0, 1.706130305690184E9, 0.0, 2024-01-24 13:05:05.690
42.0, 1445.8247534199618, 1468.3969196025282, 2342.2656831489876, -680.9086253326386, -0.09600000455975533, 0.12800000607967377, 1.0240000486373901, 0.0, 0.0, 0.0, 0.0, 0.0, 1.706130305704634E9, 0.0, 2024-01-24 13:05:05.704
42.0, 1467.9462616578676, 1414.6265079895966, 2122.17818060657, -606.308840916492, -0.09600000455975533, 0.12800000607967377, 1.0240000486373901, 0.0, 0.0, 0.0, 0.0, 0.0, 1.706130305704634E9, 0.0, 2024-01-24 13:05:05.704
43.0, 1446.6120023606345, 1273.9483012063429, 2073.8680229289457, -582.852188394405, -0.09600000455975533, 0.12800000607967377, 1.0240000486373901, 0.0, 0.0, 0.0, 0.0, 0.0, 1.706130305711946E9, 0.0, 2024-01-24 13:05:05.711
43.0, 1661.863814260345, 1091.6618374660611, 2146.408992419485, -599.9098720923066, -0.09600000455975533, 0.12800000607967377, 1.0240000486373901, 0.0, 0.0, 0.0, 0.0, 0.0, 1.706130305711946E9, 0.0, 2024-01-24 13:05:05.711
44.0, 1753.4315247754566, 1180.2413679165766, 1948.674871912226, -355.1035007927567, -0.09600000455975533, 0.12800000607967377, 1.0240000486373901, 0.0, 0.0, 0.0, 0.0, 0.0, 1.706130305719825E9, 0.0, 2024-01-24 13:05:05.719
44.0, 1545.4164192900062, 960.1837845738046, 2158.7413125233725, -257.69406654685736, -0.09600000455975533, 0.12800000607967377, 1.0240000486373901, 0.0, 0.0, 0.0, 0.0, 0.0, 1.706130305719825E9, 0.0, 2024-01-24 13:05:05.719
45.0, 1532.6633604411036, 981.3684478728101, 1941.4680846976116, -327.43572092056274, -0.09600000455975533, 0.12800000607967377, 1.0240000486373901, 0.0, 0.0, 0.0, 0.0, 0.0, 1.706130305725297E9, 0.0, 2024-01-24 13:05:05.725
45.0, 1540.388123799581, 996.9058622387238, 2113.374456110876, -318.7778525231406, -0.09600000455975533, 0.12800000607967377, 1.0240000486373901, 0.0, 0.0, 0.0, 0.0, 0.0, 1.706130305725297E9, 0.0, 2024-01-24 13:05:05.725
46.0, 1312.6151268482208, 754.9885636549443, 1966.514194700867, -322.089533933904, -0.09600000455975533, 0.12800000607967377, 1.0240000486373901, 0.0, 0.0, 0.0, 0.0, 0.0, 1.706130305780855E9, 0.0, 2024-01-24 13:05:05.780
46.0, 1289.5960426209494, 756.2414301401004, 2207.156187399756, -483.20068412506953, -0.09600000455975533, 0.12800000607967377, 1.0240000486373901, 0.0, 0.0, 0.0, 0.0, 0.0, 1.706130305780855E9, 0.0, 2024-01-24 13:05:05.780
47.0, 1458.5516329691745, 951.5745348758064, 2432.872239375487, -630.3171286820434, -0.09600000455975533, 0.12800000607967377, 1.0240000486373901, 0.0, 0.0, 0.0, 0.0, 0.0, 1.706130305785621E9, 0.0, 2024-01-24 13:05:05.785
47.0, 1485.3106171521358, 939.0103409746662, 2637.7289993483573, -582.6782830464654, -0.09600000455975533, 0.12800000607967377, 1.0240000486373901, 0.0, 0.0, 0.0, 0.0, 0.0, 1.706130305785621E9, 0.0, 2024-01-24 13:05:05.785
48.0, 1428.3164117773995, 884.8808989659883, 2429.1529088695534, -614.8040236658417, -0.09600000455975533, 0.12800000607967377, 1.0240000486373901, 0.0, 0.0, 0.0, 0.0, 0.0, 1.706130305792944E9, 0.0, 2024-01-24 13:05:05.792
48.0, 1586.8040221496485, 1072.9249386880547, 2493.6979722548276, -703.3573748166673, -0.09600000455975533, 0.12800000607967377, 1.0240000486373901, 0.0, 0.0, 0.0, 0.0, 0.0, 1.706130305792944E9, 0.0, 2024-01-24 13:05:05.792
49.0, 1601.7935411720537, 1065.0973280807957, 2724.412400521338, -540.4473327468149, -0.09600000455975533, 0.12800000607967377, 1.0240000486373901, 0.0, 0.0, 0.0, 0.0, 0.0, 1.706130305799053E9, 0.0, 2024-01-24 13:05:05.799
49.0, 1838.1477385717444, 1282.2546190079302, 2909.915178223513, -472.5793682509102, -0.09600000455975533, 0.12800000607967377, 1.0240000486373901, 0.0, 0.0, 0.0, 0.0, 0.0, 1.706130305799053E9, 0.0, 2024-01-24 13:05:05.799
50.0, 1772.493794849608, 1255.230101928115, 2665.60621361807, -581.0439467658289, -0.09600000455975533, 0.12800000607967377, 1.0240000486373901, 0.0, 0.0, 0.0, 0.0, 0.0, 1.706130305802474E9, 0.0, 2024-01-24 13:05:05.802
50.0, 1744.1939718849026, 1237.2262235414237, 2801.430030258838, -614.6843468672596, -0.09600000455975533, 0.12800000607967377, 1.0240000486373901, 0.0, 0.0, 0.0, 0.0, 0.0, 1.706130305802474E9, 0.0, 2024-01-24 13:05:05.802
51.0, 1985.739150423091, 1451.3167965048924, 2629.4862598460168, -645.0093256579712, -0.09600000455975533, 0.12800000607967377, 1.0240000486373901, 0.0, 0.0, 0.0, 0.0, 0.0, 1.706130305808829E9, 0.0, 2024-01-24 13:05:05.808
51.0, 1926.4280770258047, 1403.4460770720616, 2857.5696684936993, -835.1196601055562, -0.09600000455975533, 0.12800000607967377, 1.0240000486373901, 0.0, 0.0, 0.0, 0.0, 0.0, 1.706130305808829E9, 0.0, 2024-01-24 13:05:05.808
52.0, 2058.1342638153583, 1559.528931772802, 3048.0521229868755, -1018.056866438128, -0.09600000455975533, 0.12800000607967377, 1.0240000486373901, 0.0, 0.0, 0.0, 0.0, 0.0, 1.706130305814149E9, 0.0, 2024-01-24 13:05:05.814
52.0, 2080.2295927535743, 1547.1292934697121, 3244.1350776636973, -965.3429765626788, -0.09600000455975533, 0.12800000607967377, 1.0240000486373901, 0.0, 0.0, 0.0, 0.0, 0.0, 1.706130305814149E9, 0.0, 2024-01-24 13:05:05.814
55.0, 2040.5380345238373, 1547.8492242111824, 3024.404735567048, -1049.4196674665436, -0.09600000455975533, 0.12800000607967377, 1.0240000486373901, 0.0, 0.0, 0.0, 0.0, 0.0, 1.706130305819914E9, 0.0, 2024-01-24 13:05:05.819
55.0, 2044.593956025783, 1556.4603438591585, 3196.2624882808886, -1038.4243615968153, -0.09600000455975533, 0.12800000607967377, 1.0240000486373901, 0.0, 0.0, 0.0, 0.0, 0.0, 1.706130305819914E9, 0.0, 2024-01-24 13:05:05.819
56.0, 1858.8200355768204, 1319.0870237215422, 3076.800733946264, -1011.1530111199245, -0.09600000455975533, 0.12800000607967377, 1.0240000486373901, 0.0, 0.0, 0.0, 0.0, 0.0, 1.706130305826795E9, 0.0, 2024-01-24 13:05:05.826
56.0, 1838.6544950157404, 1331.4174738754518, 2866.9848666321486, -1151.5638150563464, -0.09600000455975533, 0.12800000607967377, 1.0240000486373901, 0.0, 0.0, 0.0, 0.0, 0.0, 1.706130305826795E9, 0.0, 2024-01-24 13:05:05.826
57.0, 2021.0774651044048, 1535.6178814060986, 2628.891615753062, -1290.0523104155436, -0.09600000455975533, 0.12800000607967377, 1.0240000486373901, 0.0, 0.0, 0.0, 0.0, 0.0, 1.706130305831826E9, 0.0, 2024-01-24 13:05:05.831
57.0, 2084.648284551222, 1541.0556959416717, 2859.4265288216993, -1200.848216672428, -0.09600000455975533, 0.12800000607967377, 1.0240000486373901, 0.0, 0.0, 0.0, 0.0, 0.0, 1.706130305831826E9, 0.0, 2024-01-24 13:05:05.831
58.0, 2087.636464615818, 1543.6362269110978, 2720.2592416205443, -1166.6580512775108, -0.09600000455975533, 0.12800000607967377, 1.0240000486373901, 0.0, 0.0, 0.0, 0.0, 0.0, 1.706130305837614E9, 0.0, 2024-01-24 13:05:05.837
58.0, 2294.3613046165556, 1322.8848921265453, 2865.5038662496954, -1175.8170662689954, -0.09600000455975533, 0.12800000607967377, 1.0240000486373901, 0.0, 0.0, 0.0, 0.0, 0.0, 1.706130305837614E9, 0.0, 2024-01-24 13:05:05.837
59.0, 2398.2893844852224, 1386.7586434697732, 2693.8555479333736, -1407.0793898790143, -0.09600000455975533, 0.12800000607967377, 1.0240000486373901, 0.0, 0.0, 0.0, 0.0, 0.0, 1.706130305842142E9, 0.0, 2024-01-24 13:05:05.842
59.0, 2235.2914547664113, 1203.50167569099, 2487.747791425325, -1229.3294247849844, -0.09600000455975533, 0.12800000607967377, 1.0240000486373901, 0.0, 0.0, 0.0, 0.0, 0.0, 1.706130305842142E9, 0.0, 2024-01-24 13:05:05.842
60.0, 2276.593039927073, 1284.8688090769574, 2348.855386870913, -1232.5868776463903, -0.09600000455975533, 0.12800000607967377, 1.008000047877431, 0.0, 0.0, 0.0, 0.0, 0.0, 1.706130305869914E9, 0.0, 2024-01-24 13:05:05.869
60.0, 2352.5522779771127, 1359.3395669446327, 2583.016132946592, -1153.4057157845236, -0.09600000455975533, 0.12800000607967377, 1.008000047877431, 0.0, 0.0, 0.0, 0.0, 0.0, 1.706130305869914E9, 0.0, 2024-01-24 13:05:05.869
61.0, 2201.0994194215164, 1168.0866930605844, 2492.48998456914, -1094.412533883471, -0.09600000455975533, 0.12800000607967377, 1.008000047877431, 0.0, 0.0, 0.0, 0.0, 0.0, 1.70613030587501E9, 0.0, 2024-01-24 13:05:05.875
61.0, 2234.582743724808, 1242.660298177041, 2331.345175278373, -1182.0196903455071, -0.09600000455975533, 0.12800000607967377, 1.008000047877431, 0.0, 0.0, 0.0, 0.0, 0.0, 1.70613030587501E9, 0.0, 2024-01-24 13:05:05.875
62.0, 2459.704151607584, 1008.8716721469536, 2119.42748418916, -1283.7898479397409, -0.09600000455975533, 0.12800000607967377, 1.008000047877431, 0.0, 0.0, 0.0, 0.0, 0.0, 1.70613030587961E9, 0.0, 2024-01-24 13:05:05.879
62.0, 2554.3871987857856, 1038.0765509009361, 2360.292000935413, -1190.6177203436382, -0.09600000455975533, 0.12800000607967377, 1.008000047877431, 0.0, 0.0, 0.0, 0.0, 0.0, 1.70613030587961E9, 0.0, 2024-01-24 13:05:05.879
63.0, 2559.593139524106, 1048.2677782801911, 2214.4228130136617, -1168.5074318055995, -0.09600000455975533, 0.12800000607967377, 1.008000047877431, 0.0, 0.0, 0.0, 0.0, 0.0, 1.706130305885159E9, 0.0, 2024-01-24 13:05:05.885
63.0, 2771.0339933689684, 823.821422339417, 2345.4483380112797, -1196.0405752793886, -0.09600000455975533, 0.12800000607967377, 1.008000047877431, 0.0, 0.0, 0.0, 0.0, 0.0, 1.706130305885159E9, 0.0, 2024-01-24 13:05:05.885
64.0, 2848.528460350819, 843.3586597079411, 2110.057164850179, -997.9754736260511, -0.09600000455975533, 0.12800000607967377, 1.008000047877431, 0.0, 0.0, 0.0, 0.0, 0.0, 1.706130305915167E9, 0.0, 2024-01-24 13:05:05.915
64.0, 2657.185828867834, 619.2133657136001, 2350.1550021055155, -874.2782825916074, -0.09600000455975533, 0.12800000607967377, 1.008000047877431, 0.0, 0.0, 0.0, 0.0, 0.0, 1.706130305915167E9, 0.0, 2024-01-24 13:05:05.915
65.0, 2667.835193991661, 679.8352740453556, 2194.3470300515182, -903.3447850472294, -0.09600000455975533, 0.12800000607967377, 1.008000047877431, 0.0, 0.0, 0.0, 0.0, 0.0, 1.706130305920899E9, 0.0, 2024-01-24 13:05:05.920
65.0, 2730.1699765031226, 720.7740889103152, 2395.2338862214237, -861.0726958480664, -0.09600000455975533, 0.12800000607967377, 1.008000047877431, 0.0, 0.0, 0.0, 0.0, 0.0, 1.706130305920899E9, 0.0, 2024-01-24 13:05:05.920
66.0, 2541.2919390909374, 959.7723955786787, 2249.0019280039705, -860.9044003500603, -0.09600000455975533, 0.12800000607967377, 1.008000047877431, 0.0, 0.0, 0.0, 0.0, 0.0, 1.706130305930547E9, 0.0, 2024-01-24 13:05:05.930
66.0, 2498.9787109922618, 946.0133036416955, 2015.0637059756555, -1037.0985670625232, -0.09600000455975533, 0.12800000607967377, 1.008000047877431, 0.0, 0.0, 0.0, 0.0, 0.0, 1.706130305930547E9, 0.0, 2024-01-24 13:05:05.930
67.0, 2652.458595323842, 1126.6224222518504, 2205.4040442705154, -1229.804392079357, -0.09600000455975533, 0.12800000607967377, 1.008000047877431, 0.0, 0.0, 0.0, 0.0, 0.0, 1.706130305936806E9, 0.0, 2024-01-24 13:05:05.936
67.0, 2631.255232525058, 1036.6535189677961, 2323.7531783683226, -1249.8222065921873, -0.09600000455975533, 0.12800000607967377, 1.008000047877431, 0.0, 0.0, 0.0, 0.0, 0.0, 1.706130305936806E9, 0.0, 2024-01-24 13:05:05.936
68.0, 2528.4360329932533, 948.7565202591941, 2091.1519705741666, -1307.764476605691, -0.09600000455975533, 0.12800000607967377, 1.008000047877431, 0.0, 0.0, 0.0, 0.0, 0.0, 1.706130305940818E9, 0.0, 2024-01-24 13:05:05.940
68.0, 2659.693431788124, 1146.5355195659213, 2165.850862339139, -1392.4208520026878, -0.09600000455975533, 0.12800000607967377, 1.008000047877431, 0.0, 0.0, 0.0, 0.0, 0.0, 1.706130305940818E9, 0.0, 2024-01-24 13:05:05.940
69.0, 2695.4842743640766, 1140.9742883318104, 2381.1643825881183, -1212.546623733826, -0.09600000455975533, 0.12800000607967377, 1.008000047877431, 0.0, 0.0, 0.0, 0.0, 0.0, 1.706130305988131E9, 0.0, 2024-01-24 13:05:05.988
69.0, 2478.702843382489, 895.9453929848969, 2618.6255903746933, -1093.531787443906, -0.09600000455975533, 0.12800000607967377, 1.008000047877431, 0.0, 0.0, 0.0, 0.0, 0.0, 1.706130305988131E9, 0.0, 2024-01-24 13:05:05.988
70.0, 2473.9905694383197, 963.6170127331279, 2484.9166871588677, -1102.1522568417713, -0.09600000455975533, 0.12800000607967377, 1.008000047877431, 0.0, 0.0, 0.0, 0.0, 0.0, 1.706130306005798E9, 0.0, 2024-01-24 13:05:06.005
70.0, 2526.605351964943, 1004.7054235963151, 2708.7777487565763, -1032.3806832684204, -0.09600000455975533, 0.12800000607967377, 1.008000047877431, 0.0, 0.0, 0.0, 0.0, 0.0, 1.706130306005798E9, 0.0, 2024-01-24 13:05:06.005
71.0, 2397.5657138437964, 831.998713592533, 2655.4823044380173, -924.5593675458804, -0.09600000455975533, 0.12800000607967377, 1.008000047877431, 0.0, 0.0, 0.0, 0.0, 0.0, 1.706130306013139E9, 0.0, 2024-01-24 13:05:06.013
71.0, 2437.0366179761477, 924.1087096012197, 2537.5408194353804, -986.398613313213, -0.09600000455975533, 0.12800000607967377, 1.008000047877431, 0.0, 0.0, 0.0, 0.0, 0.0, 1.706130306013139E9, 0.0, 2024-01-24 13:05:06.013
72.0, 2628.79811825417, 1141.062175980769, 2765.2165789878927, -1159.0286553679034, -0.09600000455975533, 0.12800000607967377, 1.008000047877431, 0.0, 0.0, 0.0, 0.0, 0.0, 1.706130306018289E9, 0.0, 2024-01-24 13:05:06.018
72.0, 2632.7212733076885, 1075.2754658102058, 2903.776132446248, -1156.4369046986103, -0.09600000455975533, 0.12800000607967377, 1.008000047877431, 0.0, 0.0, 0.0, 0.0, 0.0, 1.706130306018289E9, 0.0, 2024-01-24 13:05:06.018
73.0, 2534.4647517218255, 1019.5229072207585, 2691.329245513305, -1206.9442536002025, -0.09600000455975533, 0.12800000607967377, 1.008000047877431, 0.0, 0.0, 0.0, 0.0, 0.0, 1.706130306023564E9, 0.0, 2024-01-24 13:05:06.023
73.0, 2664.458064331673, 1202.3348269048147, 2760.934393538628, -1303.3813138576224, -0.09600000455975533, 0.12800000607967377, 1.008000047877431, 0.0, 0.0, 0.0, 0.0, 0.0, 1.706130306023564E9, 0.0, 2024-01-24 13:05:06.023
74.0, 2716.7456056121737, 1203.512895390857, 2987.8229041504674, -1116.9809601660818, -0.09600000455975533, 0.12800000607967377, 1.008000047877431, 0.0, 0.0, 0.0, 0.0, 0.0, 1.706130306028804E9, 0.0, 2024-01-24 13:05:06.028
74.0, 2479.955709867645, 1432.3573736795224, 3191.576393636409, -1014.1037921849638, -0.09600000455975533, 0.12800000607967377, 1.008000047877431, 0.0, 0.0, 0.0, 0.0, 0.0, 1.706130306028804E9, 0.0, 2024-01-24 13:05:06.028
75.0, 2441.7152328207158, 1456.062729548663, 3005.437832941767, -1082.293388077058, -0.09600000455975533, 0.12800000607967377, 1.008000047877431, 0.0, 0.0, 0.0, 0.0, 0.0, 1.706130306033901E9, 0.0, 2024-01-24 13:05:06.033
75.0, 2458.1539630759507, 1446.7952574584633, 3159.860172062181, -1084.0511410562322, -0.09600000455975533, 0.12800000607967377, 1.008000047877431, 0.0, 0.0, 0.0, 0.0, 0.0, 1.706130306033901E9, 0.0, 2024-01-24 13:05:06.033
76.0, 2251.49270137446, 1666.7537334524095, 3005.0301838465966, -1078.5609679212794, -0.09600000455975533, 0.12800000607967377, 1.008000047877431, 0.0, 0.0, 0.0, 0.0, 0.0, 1.70613030606392E9, 0.0, 2024-01-24 13:05:06.063
76.0, 2238.9341173232533, 1711.3034217245877, 2830.724666611757, -1184.1607830701396, -0.09600000455975533, 0.12800000607967377, 1.008000047877431, 0.0, 0.0, 0.0, 0.0, 0.0, 1.70613030606392E9, 0.0, 2024-01-24 13:05:06.063
77.0, 2440.093986189924, 1943.9420285183005, 2589.987306463998, -1316.4186051031575, -0.09600000455975533, 0.12800000607967377, 1.008000047877431, 0.0, 0.0, 0.0, 0.0, 0.0, 1.706130306082841E9, 0.0, 2024-01-24 13:05:06.082
77.0, 2494.0009041512385, 1924.8778884941712, 2762.404174221214, -1269.5838379580528, -0.09600000455975533, 0.12800000607967377, 1.008000047877431, 0.0, 0.0, 0.0, 0.0, 0.0, 1.706130306082841E9, 0.0, 2024-01-24 13:05:06.082
78.0, 2438.62233555736, 1891.1570805436932, 2593.07459387742, -1266.023453200236, -0.09600000455975533, 0.12800000607967377, 1.008000047877431, 0.0, 0.0, 0.0, 0.0, 0.0, 1.706130306088112E9, 0.0, 2024-01-24 13:05:06.088
78.0, 2636.3901151642203, 2132.322659236379, 2709.7463828451, -1313.9016524329782, -0.09600000455975533, 0.12800000607967377, 1.008000047877431, 0.0, 0.0, 0.0, 0.0, 0.0, 1.706130306088112E9, 0.0, 2024-01-24 13:05:06.088
79.0, 2700.6565560027957, 2125.545960516669, 2935.097794575151, -1137.359675024636, -0.09600000455975533, 0.12800000607967377, 1.008000047877431, 0.0, 0.0, 0.0, 0.0, 0.0, 1.706130306092627E9, 0.0, 2024-01-24 13:05:06.092
79.0, 2464.2817891533487, 2347.677318384871, 3125.271707321983, -1063.261037202552, -0.09600000455975533, 0.12800000607967377, 1.008000047877431, 0.0, 0.0, 0.0, 0.0, 0.0, 1.706130306092627E9, 0.0, 2024-01-24 13:05:06.092
80.0, 2411.1078915833496, 2346.446891299449, 2920.553323647473, -1146.249417219311, -0.09600000455975533, 0.12800000607967377, 1.008000047877431, 0.0, 0.0, 0.0, 0.0, 0.0, 1.70613030609991E9, 0.0, 2024-01-24 13:05:06.099
80.0, 2402.524821185041, 2305.450107985176, 3028.0885370234028, -1199.2886783909053, -0.09600000455975533, 0.12800000607967377, 1.008000047877431, 0.0, 0.0, 0.0, 0.0, 0.0, 1.70613030609991E9, 0.0, 2024-01-24 13:05:06.099
81.0, 2180.552409064956, 2518.3364331629127, 2868.82302746037, -1195.4739804361016, -0.09600000455975533, 0.12800000607967377, 1.008000047877431, 0.0, 0.0, 0.0, 0.0, 0.0, 1.706130306124503E9, 0.0, 2024-01-24 13:05:06.124
81.0, 2163.95847296156, 2560.8291764594615, 2706.2794955861755, -1289.4464466227219, -0.09600000455975533, 0.12800000607967377, 1.008000047877431, 0.0, 0.0, 0.0, 0.0, 0.0, 1.706130306124503E9, 0.0, 2024-01-24 13:05:06.124
82.0, 2357.7058601160534, 2788.3142011142336, 2461.2898691887967, -1439.3229373469949, -0.09600000455975533, 0.12800000607967377, 1.008000047877431, 0.0, 0.0, 0.0, 0.0, 0.0, 1.706130306140797E9, 0.0, 2024-01-24 13:05:06.140
82.0, 2396.3913852577098, 2768.2365482021123, 2645.29294700874, -1399.4294245196506, -0.09600000455975533, 0.12800000607967377, 1.008000047877431, 0.0, 0.0, 0.0, 0.0, 0.0, 1.706130306140797E9, 0.0, 2024-01-24 13:05:06.140
83.0, 2355.93875738699, 2765.8374023805372, 2489.6252212030813, -1383.011263714172, -0.09600000455975533, 0.12800000607967377, 1.008000047877431, 0.0, 0.0, 0.0, 0.0, 0.0, 1.706130306144807E9, 0.0, 2024-01-24 13:05:06.144
83.0, 2513.640988768544, 2989.791961477138, 2577.1482299161144, -1474.115226634778, -0.09600000455975533, 0.12800000607967377, 1.008000047877431, 0.0, 0.0, 0.0, 0.0, 0.0, 1.706130306144807E9, 0.0, 2024-01-24 13:05:06.144
85.0, 2462.868106970098, 3008.9869979997166, 2378.346367971506, -1547.518243065104, -0.09600000455975533, 0.12800000607967377, 1.008000047877431, 0.0, 0.0, 0.0, 0.0, 0.0, 1.706130306148603E9, 0.0, 2024-01-24 13:05:06.148
85.0, 2467.376556366682, 2981.782965722028, 2506.552008402534, -1574.8681314410642, -0.09600000455975533, 0.12800000607967377, 1.008000047877431, 0.0, 0.0, 0.0, 0.0, 0.0, 1.706130306148603E9, 0.0, 2024-01-24 13:05:06.148
86.0, 2288.6112084346823, 2756.639118439518, 2382.819288318511, -1527.1769272061065, -0.09600000455975533, 0.12800000607967377, 1.008000047877431, 0.0, 0.0, 0.0, 0.0, 0.0, 1.70613030615591E9, 0.0, 2024-01-24 13:05:06.155
86.0, 2292.885914084036, 2814.2073984574527, 2236.1478918562643, -1594.5923638073727, -0.09600000455975533, 0.12800000607967377, 1.008000047877431, 0.0, 0.0, 0.0, 0.0, 0.0, 1.70613030615591E9, 0.0, 2024-01-24 13:05:06.155
87.0, 2506.9147786982358, 3057.418702425901, 2008.8741715489887, -1707.2979888720438, -0.09600000455975533, 0.12800000607967377, 1.008000047877431, 0.0, 0.0, 0.0, 0.0, 0.0, 1.706130306169621E9, 0.0, 2024-01-24 13:05:06.169
87.0, 2603.3443591557443, 3082.6031887275167, 2226.5550484699197, -1586.4019829044119, -0.09600000455975533, 0.12800000607967377, 1.008000047877431, 0.0, 0.0, 0.0, 0.0, 0.0, 1.706130306169621E9, 0.0, 2024-01-24 13:05:06.169
88.0, 2641.087429508567, 3139.6778019513004, 2157.4510470386595, -1463.8679007561877, -0.09600000455975533, 0.12800000607967377, 1.008000047877431, 0.0, 0.0, 0.0, 0.0, 0.0, 1.706130306175269E9, 0.0, 2024-01-24 13:05:06.175
88.0, 2423.3878530878574, 2956.5236814212985, 2350.689807799179, -1425.1692859646864, -0.09600000455975533, 0.12800000607967377, 1.008000047877431, 0.0, 0.0, 0.0, 0.0, 0.0, 1.706130306175269E9, 0.0, 2024-01-24 13:05:06.175
89.0, 2528.968968736939, 3004.678633250762, 2143.647076302208, -1190.595280943904, -0.09600000455975533, 0.12800000607967377, 1.008000047877431, 0.0, 0.0, 0.0, 0.0, 0.0, 1.706130306180795E9, 0.0, 2024-01-24 13:05:06.180
89.0, 2387.1426126672886, 2835.730522702448, 1957.0765571626835, -975.3378591942601, -0.09600000455975533, 0.12800000607967377, 1.008000047877431, 0.0, 0.0, 0.0, 0.0, 0.0, 1.706130306180795E9, 0.0, 2024-01-24 13:05:06.180
91.0, 2213.0521396799013, 2634.465936637018, 1831.3205512026325, -926.9809527671896, -0.09600000455975533, 0.12800000607967377, 1.008000047877431, 0.0, 0.0, 0.0, 0.0, 0.0, 1.706130306186117E9, 0.0, 2024-01-24 13:05:06.186
91.0, 2180.5337095651776, 2677.194293630775, 1653.9333564043045, -1032.3638537186198, -0.09600000455975533, 0.12800000607967377, 1.008000047877431, 0.0, 0.0, 0.0, 0.0, 0.0, 1.706130306186117E9, 0.0, 2024-01-24 13:05:06.186
92.0, 2307.621119909454, 2845.0241740923375, 1826.7709629065357, -1264.4283858691342, -0.09600000455975533, 0.12800000607967377, 1.008000047877431, 0.0, 0.0, 0.0, 0.0, 0.0, 1.706130306216918E9, 0.0, 2024-01-24 13:05:06.216
92.0, 2336.751200664323, 2777.116940646898, 1944.2412205147557, -1255.65084067313, -0.09600000455975533, 0.12800000607967377, 1.008000047877431, 0.0, 0.0, 0.0, 0.0, 0.0, 1.706130306216918E9, 0.0, 2024-01-24 13:05:06.216
93.0, 2235.0016125198454, 2698.494893828407, 1712.2346568135545, -1323.1635146732442, -0.09600000455975533, 0.12800000607967377, 1.008000047877431, 0.0, 0.0, 0.0, 0.0, 0.0, 1.706130306221776E9, 0.0, 2024-01-24 13:05:06.221
93.0, 2323.3174800234847, 2849.405466890428, 1724.4398203189485, -1493.3626217567362, -0.09600000455975533, 0.12800000607967377, 1.008000047877431, 0.0, 0.0, 0.0, 0.0, 0.0, 1.706130306221776E9, 0.0, 2024-01-24 13:05:06.221
94.0, 2285.578149570618, 2749.66981487209, 1831.629092948977, -1434.3731797556393, -0.09600000455975533, 0.12800000607967377, 1.008000047877431, 0.0, 0.0, 0.0, 0.0, 0.0, 1.706130306228269E9, 0.0, 2024-01-24 13:05:06.228
94.0, 2486.4743554904126, 2929.5178638412617, 1985.1332866302691, -1383.7910328549333, -0.09600000455975533, 0.12800000607967377, 1.008000047877431, 0.0, 0.0, 0.0, 0.0, 0.0, 1.706130306228269E9, 0.0, 2024-01-24 13:05:06.228
95.0, 2379.9769643521868, 2900.810391781386, 1743.8162419893779, -1508.8645070730709, -0.09600000455975533, 0.12800000607967377, 1.008000047877431, 0.0, 0.0, 0.0, 0.0, 0.0, 1.706130306231393E9, 0.0, 2024-01-24 13:05:06.231
95.0, 2327.255594676826, 2826.3153245639987, 1814.0721326069906, -1607.8409594004042, -0.09600000455975533, 0.12800000607967377, 1.008000047877431, 0.0, 0.0, 0.0, 0.0, 0.0, 1.706130306231393E9, 0.0, 2024-01-24 13:05:06.231
96.0, 2522.444713264238, 2980.496440137271, 1569.0432372600771, -1667.677488741465, -0.09600000455975533, 0.12800000607967377, 1.008000047877431, 0.0, 0.0, 0.0, 0.0, 0.0, 1.706130306243255E9, 0.0, 2024-01-24 13:05:06.243
96.0, 2421.306598762516, 2936.051469063852, 1350.5208828491159, -1822.1503165112808, -0.09600000455975533, 0.12800000607967377, 1.008000047877431, 0.0, 0.0, 0.0, 0.0, 0.0, 1.706130306243255E9, 0.0, 2024-01-24 13:05:06.243
97.0, 2514.114086112939, 3041.892507759854, 1493.4093705061823, -1597.5786739219911, -0.09600000455975533, 0.12800000607967377, 1.008000047877431, 0.0, 0.0, 0.0, 0.0, 0.0, 1.706130306261908E9, 0.0, 2024-01-24 13:05:06.261
97.0, 2483.58715272462, 2967.133777595591, 1600.5799436364323, -1603.586823200807, -0.09600000455975533, 0.12800000607967377, 1.008000047877431, 0.0, 0.0, 0.0, 0.0, 0.0, 1.706130306261908E9, 0.0, 2024-01-24 13:05:06.261
98.0, 2383.015633066185, 2899.4284987477586, 1408.5529104615562, -1623.5279697645456, -0.09600000455975533, 0.12800000607967377, 1.008000047877431, 0.0, 0.0, 0.0, 0.0, 0.0, 1.706130306266528E9, 0.0, 2024-01-24 13:05:06.266
98.0, 2479.8771719685756, 3071.6041429578327, 1452.5846225898713, -1760.8234370378777, -0.09600000455975533, 0.12800000607967377, 1.008000047877431, 0.0, 0.0, 0.0, 0.0, 0.0, 1.706130306266528E9, 0.0, 2024-01-24 13:05:06.266
99.0, 2426.0001732069068, 2998.044050729368, 1583.2941260412335, -1671.488446796313, -0.09600000455975533, 0.12800000607967377, 1.008000047877431, 0.0, 0.0, 0.0, 0.0, 0.0, 1.706130306274243E9, 0.0, 2024-01-24 13:05:06.274
99.0, 2638.0749400942586, 3210.141257016454, 1785.5853146445006, -1568.816973312758, -0.09600000455975533, 0.12800000607967377, 1.008000047877431, 0.0, 0.0, 0.0, 0.0, 0.0, 1.706130306274243E9, 0.0, 2024-01-24 13:05:06.274
100.0, 2559.7427355223335, 3224.0854740012437, 1601.4176812265068, -1632.3092548605055, -0.09600000455975533, 0.12800000607967377, 1.008000047877431, 0.0, 0.0, 0.0, 0.0, 0.0, 1.706130306277881E9, 0.0, 2024-01-24 13:05:06.277
100.0, 2540.5645285495557, 3196.099802632816, 1710.4862535842694, -1689.9224136779085, -0.09600000455975533, 0.12800000607967377, 1.008000047877431, 0.0, 0.0, 0.0, 0.0, 0.0, 1.706130306277881E9, 0.0, 2024-01-24 13:05:06.277
0.0, -1090.4014911809936, -912.8422609847039, -849.1760740890168, -524.6986140334047, -0.09600000455975533, 0.12800000607967377, 1.008000047877431, 0.0, 0.0, 0.0, 0.0, 0.0, 1.706130306289789E9, 0.0, 2024-01-24 13:05:06.289
1.0, -1113.5477320067585, -885.3614761102945, -1028.7398906615563, -647.5879866774194, -0.09600000455975533, 0.12800000607967377, 1.008000047877431, 0.0, 0.0, 0.0, 0.0, 0.0, 1.706130306351914E9, 0.0, 2024-01-24 13:05:06.351
1.0, -973.1163586205803, -734.4733424480073, -868.9956739041954, -402.6413691295311, -0.09600000455975533, 0.12800000607967377, 1.008000047877431, 0.0, 0.0, 0.0, 0.0, 0.0, 1.706130306351914E9, 0.0, 2024-01-24 13:05:06.351
2.0, -936.1474475585856, -773.8825382310897, -698.9274633191526, -332.47710606083274, -0.09600000455975533, 0.12800000607967377, 1.008000047877431, 0.0, 0.0, 0.0, 0.0, 0.0, 1.706130306357148E9, 0.0, 2024-01-24 13:05:06.357
2.0, -920.6006834427826, -750.6203605066985, -796.5108029129915, -244.87742939870805, -0.09600000455975533, 0.12800000607967377, 1.008000047877431, 0.0, 0.0, 0.0, 0.0, 0.0, 1.706130306357148E9, 0.0, 2024-01-24 13:05:06.357
3.0, -739.9466860331595, -978.0474167121574, -668.2228846829385, -310.8530045170337, -0.09600000455975533, 0.12800000607967377, 1.008000047877431, 0.0, 0.0, 0.0, 0.0, 0.0, 1.706130306362671E9, 0.0, 2024-01-24 13:05:06.362
3.0, -691.3205068092793, -993.5642616283149, -484.54891805909574, -168.25061920657754, -0.09600000455975533, 0.12800000607967377, 1.008000047877431, 0.0, 0.0, 0.0, 0.0, 0.0, 1.706130306362671E9, 0.0, 2024-01-24 13:05:06.362
4.0, -866.7012452813797, -1175.568362921942, -687.3767823060043, 30.5325432382524, -0.09600000455975533, 0.12800000607967377, 1.008000047877431, 0.0, 0.0, 0.0, 0.0, 0.0, 1.706130306368135E9, 0.0, 2024-01-24 13:05:06.368
4.0, -837.0569282826036, -1077.4876166339964, -798.6462857876904, 23.542670221067965, -0.09600000455975533, 0.12800000607967377, 1.008000047877431, 0.0, 0.0, 0.0, 0.0, 0.0, 1.706130306368135E9, 0.0, 2024-01-24 13:05:06.368
5.0, -768.5064320447855, -1041.9342577052303, -626.8034926736727, 41.58768750727177, -0.09600000455975533, 0.12800000607967377, 1.008000047877431, 0.0, 0.0, 0.0, 0.0, 0.0, 1.706130306373152E9, 0.0, 2024-01-24 13:05:06.373
5.0, -904.4424456842244, -1252.9786821547896, -714.9959434787743, 145.52324717584997, -0.09600000455975533, 0.12800000607967377, 1.008000047877431, 0.0, 0.0, 0.0, 0.0, 0.0, 1.706130306373152E9, 0.0, 2024-01-24 13:05:06.373
6.0, -883.0763972373679, -1183.7306945752352, -844.7891714409925, 85.87558278255165, -0.09600000455975533, 0.12800000607967377, 1.008000047877431, 0.0, 0.0, 0.0, 0.0, 0.0, 1.706130306378922E9, 0.0, 2024-01-24 13:05:06.378
6.0, -673.3858165717684, -970.3525725533254, -614.4917420195416, -84.54043849837035, -0.09600000455975533, 0.12800000607967377, 1.008000047877431, 0.0, 0.0, 0.0, 0.0, 0.0, 1.706130306378922E9, 0.0, 2024-01-24 13:05:06.378
7.0, -606.441607364919, -982.1426071636379, -421.022977411747, 1.3538437839597464, -0.09600000455975533, 0.12800000607967377, 1.008000047877431, 0.0, 0.0, 0.0, 0.0, 0.0, 1.706130306385812E9, 0.0, 2024-01-24 13:05:06.385
7.0, -620.4643622487783, -972.0486171832308, -541.4084870354272, 60.8444323791191, -0.09600000455975533, 0.12800000607967377, 1.008000047877431, 0.0, 0.0, 0.0, 0.0, 0.0, 1.706130306385812E9, 0.0, 2024-01-24 13:05:06.385
11.0, -669.8908800631762, -980.224038486369, -765.6790676782839, -106.9013003334403, -0.09600000455975533, 0.12800000607967377, 1.008000047877431, 0.0, 0.0, 0.0, 0.0, 0.0, 1.706130306390829E9, 0.0, 2024-01-24 13:05:06.390
11.0, -554.7487101773731, -875.2693560798652, -635.8353510666639, 93.15903794625774, -0.09600000455975533, 0.12800000607967377, 1.008000047877431, 0.0, 0.0, 0.0, 0.0, 0.0, 1.706130306390829E9, 0.0, 2024-01-24 13:05:06.390
12.0, -598.3690333105624, -973.2715644687414, -523.5411149971187, 69.59579827543348, -0.09600000455975533, 0.12800000607967377, 1.008000047877431, 0.0, 0.0, 0.0, 0.0, 0.0, 1.706130306397262E9, 0.0, 2024-01-24 13:05:06.397
12.0, -692.0703567503951, -1042.225969901774, -730.7521419920959, 41.74850320536643, -0.09600000455975533, 0.12800000607967377, 1.008000047877431, 0.0, 0.0, 0.0, 0.0, 0.0, 1.706130306397262E9, 0.0, 2024-01-24 13:05:06.397
13.0, -587.4485254399478, -906.2301178630441, -709.2795063965023, -143.97118869423866, -0.09600000455975533, 0.12800000607967377, 1.008000047877431, 0.0, 0.0, 0.0, 0.0, 0.0, 1.706130306404766E9, 0.0, 2024-01-24 13:05:06.404
13.0, -653.7419920545071, -1026.9428687328473, -593.5296027678996, -97.4169140458107, -0.09600000455975533, 0.12800000607967377, 1.008000047877431, 0.0, 0.0, 0.0, 0.0, 0.0, 1.706130306404766E9, 0.0, 2024-01-24 13:05:06.404
14.0, -436.7529966253787, -843.3923188075423, -420.3535353196785, -14.189180431887507, -0.09600000455975533, 0.12800000607967377, 1.008000047877431, 0.0, 0.0, 0.0, 0.0, 0.0, 1.706130306410888E9, 0.0, 2024-01-24 13:05:06.410
14.0, -531.4435236034915, -846.3281402727589, -621.0178674422204, -121.3522737622261, -0.09600000455975533, 0.12800000607967377, 1.008000047877431, 0.0, 0.0, 0.0, 0.0, 0.0, 1.706130306410888E9, 0.0, 2024-01-24 13:05:06.410
15.0, -629.948748536408, -959.2058007353917, -561.5179290971719, -249.99361253809184, -0.09600000455975533, 0.12800000607967377, 1.008000047877431, 0.0, 0.0, 0.0, 0.0, 0.0, 1.70613030642581E9, 0.0, 2024-01-24 13:05:06.425
15.0, -393.8451244337484, -768.0707336999476, -729.2056933604181, -257.56130009843037, -0.09600000455975533, 0.12800000607967377, 1.008000047877431, 0.0, 0.0, 0.0, 0.0, 0.0, 1.70613030642581E9, 0.0, 2024-01-24 13:05:06.425
16.0, -464.2487410996109, -758.152519017458, -951.3669704282656, -400.59377390379086, -0.09600000455975533, 0.12800000607967377, 1.008000047877431, 0.0, 0.0, 0.0, 0.0, 0.0, 1.706130306431761E9, 0.0, 2024-01-24 13:05:06.431
16.0, -362.58517065411434, -639.3564668749459, -813.0972592164762, -158.88216981757432, -0.09600000455975533, 0.12800000607967377, 1.008000047877431, 0.0, 0.0, 0.0, 0.0, 0.0, 1.706130306431761E9, 0.0, 2024-01-24 13:05:06.431
17.0, -379.8915576990694, -710.6707491800189, -686.7222998137586, -130.09241995867342, -0.09600000455975533, 0.12800000607967377, 1.008000047877431, 0.0, 0.0, 0.0, 0.0, 0.0, 1.706130306436762E9, 0.0, 2024-01-24 13:05:06.436
17.0, -456.4230004423298, -749.6535963681526, -850.5317878229544, -116.00047692563385, -0.09600000455975533, 0.12800000607967377, 1.008000047877431, 0.0, 0.0, 0.0, 0.0, 0.0, 1.706130306436762E9, 0.0, 2024-01-24 13:05:06.436
18.0, -323.87159626279026, -569.8971749478951, -779.0454701199196, -222.34453216567636, -0.09600000455975533, 0.12800000607967377, 1.008000047877431, 0.0, 0.0, 0.0, 0.0, 0.0, 1.706130306443776E9, 0.0, 2024-01-24 13:05:06.443
18.0, -318.0784912314266, -626.6838158750907, -585.0680791181512, -89.72019993700087, -0.09600000455975533, 0.12800000607967377, 1.008000047877431, 0.0, 0.0, 0.0, 0.0, 0.0, 1.706130306443776E9, 0.0, 2024-01-24 13:05:06.443
19.0, -528.1842007921077, -845.1369821368717, -816.5173977259547, 70.88980366010219, -0.09600000455975533, 0.12800000607967377, 1.008000047877431, 0.0, 0.0, 0.0, 0.0, 0.0, 1.70613030644889E9, 0.0, 2024-01-24 13:05:06.448
19.0, -542.4668787228875, -773.3178133377805, -940.2220685603097, 53.297314268536866, -0.09600000455975533, 0.12800000607967377, 1.008000047877431, 0.0, 0.0, 0.0, 0.0, 0.0, 1.70613030644889E9, 0.0, 2024-01-24 13:05:06.448
20.0, -529.5137352263555, -771.1542812134139, -769.8228768291883, 36.91281256265938, -0.09600000455975533, 0.12800000607967377, 1.0240000486373901, 0.0, 0.0, 0.0, 0.0, 0.0, 1.706130306470799E9, 0.0, 2024-01-24 13:05:06.470
20.0, -661.5004145125858, -945.742160894908, -826.4954508077353, 156.43627524655312, -0.09600000455975533, 0.12800000607967377, 1.0240000486373901, 0.0, 0.0, 0.0, 0.0, 0.0, 1.706130306470799E9, 0.0, 2024-01-24 13:05:06.470
21.0, -607.9039082475938, -823.3053161455318, -915.6210066517815, 143.61589819844812, -0.09600000455975533, 0.12800000607967377, 1.0240000486373901, 0.0, 0.0, 0.0, 0.0, 0.0, 1.706130306475772E9, 0.0, 2024-01-24 13:05:06.475
21.0, -548.744300798513, -746.4559819060378, -793.0588752538897, 352.28174627618864, -0.09600000455975533, 0.12800000607967377, 1.0240000486373901, 0.0, 0.0, 0.0, 0.0, 0.0, 1.706130306475772E9, 0.0, 2024-01-24 13:05:06.475
22.0, -367.5424080453813, -636.7908955053426, -962.0630843015388, 555.582707867492, -0.09600000455975533, 0.12800000607967377, 1.0240000486373901, 0.0, 0.0, 0.0, 0.0, 0.0, 1.706130306514521E9, 0.0, 2024-01-24 13:05:06.514
22.0, -268.21814502216876, -493.8780984985642, -971.3735652412288, 731.4402835839428, -0.09600000455975533, 0.12800000607967377, 1.0240000486373901, 0.0, 0.0, 0.0, 0.0, 0.0, 1.706130306514521E9, 0.0, 2024-01-24 13:05:06.514
23.0, -497.0065248114988, -689.2429923838936, -785.5921649923548, 748.7242312291637, -0.09600000455975533, 0.12800000607967377, 1.0240000486373901, 0.0, 0.0, 0.0, 0.0, 0.0, 1.706130306562592E9, 0.0, 2024-01-24 13:05:06.562
23.0, -325.3301572455093, -587.5438928888179, -932.5160047016107, 568.1151126190089, -0.09600000455975533, 0.12800000607967377, 1.0240000486373901, 0.0, 0.0, 0.0, 0.0, 0.0, 1.706130306562592E9, 0.0, 2024-01-24 13:05:06.562
24.0, -318.2617463292554, -611.3128270572051, -977.0376437241212, 448.30928748846054, -0.09600000455975533, 0.12800000607967377, 1.0240000486373901, 0.0, 0.0, 0.0, 0.0, 0.0, 1.706130306567863E9, 0.0, 2024-01-24 13:05:06.567
24.0, -199.83594428235665, -440.68550142878667, -1018.1391442371532, 530.9741661590524, -0.09600000455975533, 0.12800000607967377, 1.0240000486373901, 0.0, 0.0, 0.0, 0.0, 0.0, 1.706130306567863E9, 0.0, 2024-01-24 13:05:06.567
25.0, -69.12083098106086, -329.65348159428686, -781.296889893245, 598.7187139564194, -0.09600000455975533, 0.12800000607967377, 1.0240000486373901, 0.0, 0.0, 0.0, 0.0, 0.0, 1.706130306572422E9, 0.0, 2024-01-24 13:05:06.572
25.0, -95.5824931175448, -399.62887971522287, -764.0746505972929, 788.0249699135311, -0.09600000455975533, 0.12800000607967377, 1.0240000486373901, 0.0, 0.0, 0.0, 0.0, 0.0, 1.706130306572422E9, 0.0, 2024-01-24 13:05:06.572
26.0, 27.56119272345677, -220.26327784033492, -806.2233230979182, 805.8100641528144, -0.09600000455975533, 0.12800000607967377, 1.0240000486373901, 0.0, 0.0, 0.0, 0.0, 0.0, 1.706130306577031E9, 0.0, 2024-01-24 13:05:06.577
26.0, -210.68165415385738, -434.97841409640387, -1011.9888787600212, 673.7354972176254, -0.09600000455975533, 0.12800000607967377, 1.0240000486373901, 0.0, 0.0, 0.0, 0.0, 0.0, 1.706130306577031E9, 0.0, 2024-01-24 13:05:06.577
27.0, -53.60585601488128, -349.2486874121241, -1225.9167660754174, 823.5708490423858, -0.09600000455975533, 0.12800000607967377, 1.0240000486373901, 0.0, 0.0, 0.0, 0.0, 0.0, 1.706130306582153E9, 0.0, 2024-01-24 13:05:06.582
27.0, -3.1583455125801265, -258.0624466924928, -1278.3408137043007, 941.1121647497639, -0.09600000455975533, 0.12800000607967377, 1.0240000486373901, 0.0, 0.0, 0.0, 0.0, 0.0, 1.706130306582153E9, 0.0, 2024-01-24 13:05:06.582
28.0, 186.80052298679948, -499.7011227295734, -1168.8047538520768, 861.2877400955185, -0.09600000455975533, 0.12800000607967377, 1.0240000486373901, 0.0, 0.0, 0.0, 0.0, 0.0, 1.706130306589108E9, 0.0, 2024-01-24 13:05:06.589
28.0, 261.54242360126227, -475.96397771080956, -929.8401062833145, 1019.2050157245249, -0.09600000455975533, 0.12800000607967377, 1.0240000486373901, 0.0, 0.0, 0.0, 0.0, 0.0, 1.706130306589108E9, 0.0, 2024-01-24 13:05:06.589
29.0, 102.32927263760939, -665.6049547139555, -1139.8747577448376, 1203.1557349450886, -0.09600000455975533, 0.12800000607967377, 1.0240000486373901, 0.0, 0.0, 0.0, 0.0, 0.0, 1.706130306594879E9, 0.0, 2024-01-24 13:05:06.594
29.0, 82.43300487333909, -625.0438697445206, -1319.86118301237, 1149.0094633866102, -0.09600000455975533, 0.12800000607967377, 1.0240000486373901, 0.0, 0.0, 0.0, 0.0, 0.0, 1.706130306594879E9, 0.0, 2024-01-24 13:05:06.594
32.0, 272.9173293164931, -523.3148510497995, -1516.305038034916, 1304.0844150492921, -0.09600000455975533, 0.12800000607967377, 1.0240000486373901, 0.0, 0.0, 0.0, 0.0, 0.0, 1.706130306601752E9, 0.0, 2024-01-24 13:05:06.601
32.0, 221.49931477569044, -545.7224616343156, -1681.5356880272739, 1311.7624296583235, -0.09600000455975533, 0.12800000607967377, 1.0240000486373901, 0.0, 0.0, 0.0, 0.0, 0.0, 1.706130306601752E9, 0.0, 2024-01-24 13:05:06.601
33.0, 270.856644440908, -444.51141908345744, -1708.2310939109884, 1093.617805142887, -0.09600000455975533, 0.12800000607967377, 1.0240000486373901, 0.0, 0.0, 0.0, 0.0, 0.0, 1.70613030660977E9, 0.0, 2024-01-24 13:05:06.609
33.0, 340.8900110111572, -453.28896427946165, -1485.9090011450462, 1212.1464544385672, -0.09600000455975533, 0.12800000607967377, 1.0240000486373901, 0.0, 0.0, 0.0, 0.0, 0.0, 1.70613030660977E9, 0.0, 2024-01-24 13:05:06.609
34.0, 126.67415139917284, -686.3240004684776, -1265.3446613582782, 1333.0761195058003, -0.09600000455975533, 0.12800000607967377, 1.0240000486373901, 0.0, 0.0, 0.0, 0.0, 0.0, 1.706130306616458E9, 0.0, 2024-01-24 13:05:06.616
34.0, 314.3142819260247, -917.3750197310001, -1210.3101635603234, 1504.4626448252238, -0.09600000455975533, 0.12800000607967377, 1.0240000486373901, 0.0, 0.0, 0.0, 0.0, 0.0, 1.706130306616458E9, 0.0, 2024-01-24 13:05:06.616
35.0, 541.9115035794675, -709.2327576470561, -1328.2591283628717, 1673.309778074734, -0.09600000455975533, 0.12800000607967377, 1.0240000486373901, 0.0, 0.0, 0.0, 0.0, 0.0, 1.706130306638763E9, 0.0, 2024-01-24 13:05:06.638
35.0, 328.37630575941876, -469.0189834930934, -1479.218320124317, 1648.4824522188865, -0.09600000455975533, 0.12800000607967377, 1.0240000486373901, 0.0, 0.0, 0.0, 0.0, 0.0, 1.706130306638763E9, 0.0, 2024-01-24 13:05:06.638
36.0, 547.3380984151736, -676.5909108337946, -1407.9713560184464, 1791.0829675793648, -0.09600000455975533, 0.12800000607967377, 1.0240000486373901, 0.0, 0.0, 0.0, 0.0, 0.0, 1.706130306644895E9, 0.0, 2024-01-24 13:05:06.644
36.0, 424.7965364670381, -788.1184674124233, -1477.383899196051, 1780.3083158070222, -0.09600000455975533, 0.12800000607967377, 1.0240000486373901, 0.0, 0.0, 0.0, 0.0, 0.0, 1.706130306644895E9, 0.0, 2024-01-24 13:05:06.644
37.0, 413.42163075180724, -871.3929497757927, -1348.675242220983, 1754.3141411649995, -0.09600000455975533, 0.12800000607967377, 1.0240000486373901, 0.0, 0.0, 0.0, 0.0, 0.0, 1.706130306649804E9, 0.0, 2024-01-24 13:05:06.649
37.0, 542.8857475179248, -712.4659011587501, -1303.134480460547, 1993.2544793840498, -0.09600000455975533, 0.12800000607967377, 1.0240000486373901, 0.0, 0.0, 0.0, 0.0, 0.0, 1.706130306649804E9, 0.0, 2024-01-24 13:05:06.649
38.0, 649.9833925990388, -559.719037218485, -1209.2798211225308, 1902.846137855202, -0.09600000455975533, 0.12800000607967377, 1.0240000486373901, 0.0, 0.0, 0.0, 0.0, 0.0, 1.706130306656999E9, 0.0, 2024-01-24 13:05:06.656
38.0, 695.7373286569491, -589.0248932712711, -1011.532610965427, 2013.8538483399898, -0.09600000455975533, 0.12800000607967377, 1.0240000486373901, 0.0, 0.0, 0.0, 0.0, 0.0, 1.706130306656999E9, 0.0, 2024-01-24 13:05:06.656
39.0, 476.9176521995105, -829.3153353743255, -788.5485559073277, 2156.2692386526614, -0.09600000455975533, 0.12800000607967377, 1.0240000486373901, 0.0, 0.0, 0.0, 0.0, 0.0, 1.7061303067108E9, 0.0, 2024-01-24 13:05:06.710
39.0, 533.8744585746899, -703.4134733160026, -829.9903873163275, 2259.7728398763575, -0.09600000455975533, 0.12800000607967377, 1.0240000486373901, 0.0, 0.0, 0.0, 0.0, 0.0, 1.7061303067108E9, 0.0, 2024-01-24 13:05:06.710
40.0, 443.5820539444685, -814.234188803006, -772.648371245712, 2119.5191117380746, -0.09600000455975533, 0.12800000607967377, 1.0240000486373901, 0.0, 0.0, 0.0, 0.0, 0.0, 1.706130306717762E9, 0.0, 2024-01-24 13:05:06.717
40.0, 380.96303903637454, -930.3300331775099, -771.1561511633918, 2287.448099548463, -0.09600000455975533, 0.12800000607967377, 1.0240000486373901, 0.0, 0.0, 0.0, 0.0, 0.0, 1.706130306717762E9, 0.0, 2024-01-24 13:05:06.717
41.0, 158.4614310725592, -1105.9258158970624, -626.6333272256888, 2049.179073371459, -0.09600000455975533, 0.12800000607967377, 1.0240000486373901, 0.0, 0.0, 0.0, 0.0, 0.0, 1.706130306723874E9, 0.0, 2024-01-24 13:05:06.723
41.0, 165.31853764131665, -1097.1763199507259, -553.9016228374094, 2187.774155879393, -0.09600000455975533, 0.12800000607967377, 1.0240000486373901, 0.0, 0.0, 0.0, 0.0, 0.0, 1.706130306723874E9, 0.0, 2024-01-24 13:05:06.723
42.0, -25.56782604707405, -903.6065780441277, -647.8722190740518, 1957.0354182631709, -0.09600000455975533, 0.12800000607967377, 1.0240000486373901, 0.0, 0.0, 0.0, 0.0, 0.0, 1.706130306729457E9, 0.0, 2024-01-24 13:05:06.729
42.0, -55.82548663858324, -921.8030612785369, -791.2955124247819, 2031.5529248802923, -0.09600000455975533, 0.12800000607967377, 1.0240000486373901, 0.0, 0.0, 0.0, 0.0, 0.0, 1.706130306729457E9, 0.0, 2024-01-24 13:05:06.729
43.0, -139.46086934767663, -961.565677607432, -926.2535422258079, 2222.151316272095, -0.09600000455975533, 0.12800000607967377, 1.0240000486373901, 0.0, 0.0, 0.0, 0.0, 0.0, 1.70613030673578E9, 0.0, 2024-01-24 13:05:06.735
43.0, 84.96304719336331, -782.4356894297525, -1017.2808371973224, 2052.264490834903, -0.09600000455975533, 0.12800000607967377, 1.0240000486373901, 0.0, 0.0, 0.0, 0.0, 0.0, 1.70613030673578E9, 0.0, 2024-01-24 13:05:06.735
44.0, 103.91686016879976, -770.0117417769507, -1056.7498713796958, 1943.1921785771847, -0.09600000455975533, 0.12800000607967377, 1.0240000486373901, 0.0, 0.0, 0.0, 0.0, 0.0, 1.706130306740768E9, 0.0, 2024-01-24 13:05:06.740
44.0, -81.35404373612255, -907.4081863490865, -863.0847620242275, 1801.102159560658, -0.09600000455975533, 0.12800000607967377, 1.0240000486373901, 0.0, 0.0, 0.0, 0.0, 0.0, 1.706130306740768E9, 0.0, 2024-01-24 13:05:06.740
45.0, 94.70735652791336, -762.5599911152385, -1054.7658544532023, 1912.9251682357863, -0.09600000455975533, 0.12800000607967377, 1.0240000486373901, 0.0, 0.0, 0.0, 0.0, 0.0, 1.706130306748115E9, 0.0, 2024-01-24 13:05:06.748
45.0, 306.10146162332967, -590.2254011570476, -1282.1947806086391, 1845.7472152817063, -0.09600000455975533, 0.12800000607967377, 1.0240000486373901, 0.0, 0.0, 0.0, 0.0, 0.0, 1.706130306748115E9, 0.0, 2024-01-24 13:05:06.748
47.0, 393.536582687404, -560.7961284057237, -1080.543114897795, 1916.7417361405678, -0.09600000455975533, 0.12800000607967377, 1.0240000486373901, 0.0, 0.0, 0.0, 0.0, 0.0, 1.706130306753442E9, 0.0, 2024-01-24 13:05:06.753
47.0, 577.9921884019859, -340.5496801151894, -1002.8915721178055, 1722.4258841928095, -0.09600000455975533, 0.12800000607967377, 1.0240000486373901, 0.0, 0.0, 0.0, 0.0, 0.0, 1.706130306753442E9, 0.0, 2024-01-24 13:05:06.753
48.0, 712.2302874615416, -157.50588663388044, -928.9743194435723, 1639.1682313792408, -0.09600000455975533, 0.12800000607967377, 1.0240000486373901, 0.0, 0.0, 0.0, 0.0, 0.0, 1.706130306771467E9, 0.0, 2024-01-24 13:05:06.771
48.0, 708.3314417577349, -258.71318928478286, -793.1000141534023, 1689.481105483137, -0.09600000455975533, 0.12800000607967377, 1.0240000486373901, 0.0, 0.0, 0.0, 0.0, 0.0, 1.706130306771467E9, 0.0, 2024-01-24 13:05:06.771
49.0, 479.4776137191802, -25.799699844326824, -601.9836466177367, 1807.7404819820076, -0.09600000455975533, 0.12800000607967377, 1.0240000486373901, 0.0, 0.0, 0.0, 0.0, 0.0, 1.706130306777785E9, 0.0, 2024-01-24 13:05:06.777
49.0, 455.6282717017457, 17.233458995819092, -764.6356355906464, 1798.256095694378, -0.09600000455975533, 0.12800000607967377, 1.0240000486373901, 0.0, 0.0, 0.0, 0.0, 0.0, 1.706130306777785E9, 0.0, 2024-01-24 13:05:06.777
50.0, 336.69197331089526, -150.06348572205752, -801.7541426508687, 1572.4054073202424, -0.09600000455975533, 0.12800000607967377, 1.0240000486373901, 0.0, 0.0, 0.0, 0.0, 0.0, 1.706130306782761E9, 0.0, 2024-01-24 13:05:06.782
50.0, 181.77970729628578, -371.91996094351634, -937.2413682956249, 1611.7828139537014, -0.09600000455975533, 0.12800000607967377, 1.0240000486373901, 0.0, 0.0, 0.0, 0.0, 0.0, 1.706130306782761E9, 0.0, 2024-01-24 13:05:06.782
51.0, 229.58310852991417, -277.6034239609726, -1048.6455081757158, 1620.6183275990188, -0.09600000455975533, 0.12800000607967377, 1.0240000486373901, 0.0, 0.0, 0.0, 0.0, 0.0, 1.706130306789909E9, 0.0, 2024-01-24 13:05:06.789
51.0, 115.7031548791565, -391.67411250947043, -1148.1717257965356, 1608.1382814468816, -0.09600000455975533, 0.12800000607967377, 1.0240000486373901, 0.0, 0.0, 0.0, 0.0, 0.0, 1.706130306789909E9, 0.0, 2024-01-24 13:05:06.789
52.0, 335.75886827195063, -263.2534278309904, -1352.8396208216436, 1749.6897548697889, -0.09600000455975533, 0.12800000607967377, 1.0240000486373901, 0.0, 0.0, 0.0, 0.0, 0.0, 1.706130306795855E9, 0.0, 2024-01-24 13:05:06.795
52.0, 537.3319960837252, -39.442854882683605, -1284.6500249295495, 1534.6099783680402, -0.09600000455975533, 0.12800000607967377, 1.0240000486373901, 0.0, 0.0, 0.0, 0.0, 0.0, 1.706130306795855E9, 0.0, 2024-01-24 13:05:06.795
53.0, 670.5790216550231, 141.34577892534435, -1248.3973047090694, 1400.968393351417, -0.09600000455975533, 0.12800000607967377, 1.0240000486373901, 0.0, 0.0, 0.0, 0.0, 0.0, 1.706130306801772E9, 0.0, 2024-01-24 13:05:06.801
53.0, 719.8185444716364, 111.2938128313981, -1101.733388046734, 1457.0668926867656, -0.09600000455975533, 0.12800000607967377, 1.0240000486373901, 0.0, 0.0, 0.0, 0.0, 0.0, 1.706130306801772E9, 0.0, 2024-01-24 13:05:06.801
54.0, 818.1966128060594, 197.6630624081008, -1069.798382325098, 1410.967015882954, -0.09600000455975533, 0.12800000607967377, 1.0240000486373901, 0.0, 0.0, 0.0, 0.0, 0.0, 1.706130306807768E9, 0.0, 2024-01-24 13:05:06.807
54.0, 630.756566926837, 85.59322033589706, -914.9796138093807, 1211.462052746676, -0.09600000455975533, 0.12800000607967377, 1.0240000486373901, 0.0, 0.0, 0.0, 0.0, 0.0, 1.706130306807768E9, 0.0, 2024-01-24 13:05:06.807
55.0, 850.4289405741729, 295.79616729542613, -1086.6784207751043, 1334.4150036899373, -0.09600000455975533, 0.12800000607967377, 1.0240000486373901, 0.0, 0.0, 0.0, 0.0, 0.0, 1.706130306813136E9, 0.0, 2024-01-24 13:05:06.813
55.0, 1065.0655389311723, 483.83833706751466, -846.7339194179513, 1256.144507467281, -0.09600000455975533, 0.12800000607967377, 1.0240000486373901, 0.0, 0.0, 0.0, 0.0, 0.0, 1.706130306813136E9, 0.0, 2024-01-24 13:05:06.813
56.0, 928.8396830451675, 439.0193759985268, -630.6331502282992, 1081.532318436075, -0.09600000455975533, 0.12800000607967377, 1.0240000486373901, 0.0, 0.0, 0.0, 0.0, 0.0, 1.706130306818629E9, 0.0, 2024-01-24 13:05:06.818
56.0, 1041.2292865635827, 568.3021076167934, -489.15086495457217, 1300.0116639975458, -0.09600000455975533, 0.12800000607967377, 1.0240000486373901, 0.0, 0.0, 0.0, 0.0, 0.0, 1.706130306818629E9, 0.0, 2024-01-24 13:05:06.818
57.0, 1002.9831996667199, 454.7045164126903, -420.4750820682384, 1238.5931569752283, -0.09600000455975533, 0.12800000607967377, 1.0240000486373901, 0.0, 0.0, 0.0, 0.0, 0.0, 1.706130306921857E9, 0.0, 2024-01-24 13:05:06.921
57.0, 968.6266087237746, 441.8186911153607, -558.6961745806038, 1316.3793361536227, -0.09600000455975533, 0.12800000607967377, 1.0240000486373901, 0.0, 0.0, 0.0, 0.0, 0.0, 1.706130306921857E9, 0.0, 2024-01-24 13:05:06.921
58.0, 910.235550715588, 427.6930889827199, -698.8638850199059, 1505.4518483635038, -0.09600000455975533, 0.12800000607967377, 1.0240000486373901, 0.0, 0.0, 0.0, 0.0, 0.0, 1.70613030692649E9, 0.0, 2024-01-24 13:05:06.926
58.0, 750.8092254544608, 195.84360107965767, -740.9957279707305, 1382.493287570309, -0.09600000455975533, 0.12800000607967377, 1.0240000486373901, 0.0, 0.0, 0.0, 0.0, 0.0, 1.70613030692649E9, 0.0, 2024-01-24 13:05:06.926
59.0, 682.0904337186366, 112.6626162151806, -869.5641386974603, 1177.3018065514043, -0.09600000455975533, 0.12800000607967377, 1.0240000486373901, 0.0, 0.0, 0.0, 0.0, 0.0, 1.706130306933126E9, 0.0, 2024-01-24 13:05:06.933
59.0, 800.5274554654025, 298.185963367112, -889.4978054612875, 1288.1468313881196, -0.09600000455975533, 0.12800000607967377, 1.0240000486373901, 0.0, 0.0, 0.0, 0.0, 0.0, 1.706130306933126E9, 0.0, 2024-01-24 13:05:06.933
60.0, 850.0493407286704, 333.33915300061926, -740.6703566745855, 1245.0295247989707, -0.09600000455975533, 0.12800000607967377, 1.0240000486373901, 0.0, 0.0, 0.0, 0.0, 0.0, 1.706130306937412E9, 0.0, 2024-01-24 13:05:06.937
60.0, 916.7167973387986, 343.79217337677255, -646.6604914884083, 1023.520860273391, -0.09600000455975533, 0.12800000607967377, 1.0240000486373901, 0.0, 0.0, 0.0, 0.0, 0.0, 1.706130306937412E9, 0.0, 2024-01-24 13:05:06.937
61.0, 684.4091716911644, 158.99997666617855, -525.2913881763816, 1256.0173508687876, -0.09600000455975533, 0.12800000607967377, 1.0240000486373901, 0.0, 0.0, 0.0, 0.0, 0.0, 1.706130306981135E9, 0.0, 2024-01-24 13:05:06.981
61.0, 791.3572207740508, 290.249895661138, -395.48881046427414, 1482.3392666373402, -0.09600000455975533, 0.12800000607967377, 1.0240000486373901, 0.0, 0.0, 0.0, 0.0, 0.0, 1.706130306981135E9, 0.0, 2024-01-24 13:05:06.981
62.0, 827.5856316448189, 247.97967641195282, -246.40517853060737, 1515.1307094488293, -0.09600000455975533, 0.12800000607967377, 1.0240000486373901, 0.0, 0.0, 0.0, 0.0, 0.0, 1.706130306987825E9, 0.0, 2024-01-24 13:05:06.987
62.0, 901.3065395713784, 331.4280641232617, -281.19185796845704, 1699.406799965538, -0.09600000455975533, 0.12800000607967377, 1.0240000486373901, 0.0, 0.0, 0.0, 0.0, 0.0, 1.706130306987825E9, 0.0, 2024-01-24 13:05:06.987
63.0, 936.0745195094496, 404.3505034092814, -333.43452044948936, 1482.7169965328649, -0.09600000455975533, 0.12800000607967377, 1.0240000486373901, 0.0, 0.0, 0.0, 0.0, 0.0, 1.70613030699274E9, 0.0, 2024-01-24 13:05:06.992
63.0, 937.9070704877377, 312.7884027441032, -216.88801813032478, 1512.082690984942, -0.09600000455975533, 0.12800000607967377, 1.0240000486373901, 0.0, 0.0, 0.0, 0.0, 0.0, 1.70613030699274E9, 0.0, 2024-01-24 13:05:06.992
68.0, 1126.590633102227, 89.87914568511769, -71.99120419705287, 1478.3600130844861, -0.09600000455975533, 0.12800000607967377, 1.0240000486373901, 0.0, 0.0, 0.0, 0.0, 0.0, 1.706130306999107E9, 0.0, 2024-01-24 13:05:06.999
68.0, 925.8720724303275, 319.4641241650097, -114.48207754362375, 1331.27161777718, -0.09600000455975533, 0.12800000607967377, 1.0240000486373901, 0.0, 0.0, 0.0, 0.0, 0.0, 1.706130306999107E9, 0.0, 2024-01-24 13:05:06.999
69.0, 754.1190369152464, 167.05759112071246, -296.822769833263, 1117.5531648593023, -0.09600000455975533, 0.12800000607967377, 1.0240000486373901, 0.0, 0.0, 0.0, 0.0, 0.0, 1.706130307025773E9, 0.0, 2024-01-24 13:05:07.025
69.0, 758.6087868120521, 246.1396456337534, -399.29602861916646, 1129.593772766646, -0.09600000455975533, 0.12800000607967377, 1.0240000486373901, 0.0, 0.0, 0.0, 0.0, 0.0, 1.706130307025773E9, 0.0, 2024-01-24 13:05:07.025
70.0, 792.8270014566369, 268.8240088149905, -254.65726778283715, 1062.0250002671964, -0.09600000455975533, 0.12800000607967377, 1.0240000486373901, 0.0, 0.0, 0.0, 0.0, 0.0, 1.70613030702908E9, 0.0, 2024-01-24 13:05:07.029
70.0, 915.3760432046838, 351.22148463875055, -93.27310489490628, 897.2805372690782, -0.09600000455975533, 0.12800000607967377, 1.0240000486373901, 0.0, 0.0, 0.0, 0.0, 0.0, 1.70613030702908E9, 0.0, 2024-01-24 13:05:07.029
71.0, 1078.987316516228, 548.2263246546499, -86.75632922211662, 1019.6182746696286, -0.09600000455975533, 0.12800000607967377, 1.0240000486373901, 0.0, 0.0, 0.0, 0.0, 0.0, 1.706130307033087E9, 0.0, 2024-01-24 13:05:07.033
71.0, 1070.6622992148623, 547.0445162686519, -73.02902643475682, 1091.254188370891, -0.09600000455975533, 0.12800000607967377, 1.0240000486373901, 0.0, 0.0, 0.0, 0.0, 0.0, 1.706130307033087E9, 0.0, 2024-01-24 13:05:07.033
74.0, 1069.9685477730818, 530.4412304153666, -97.62821839330718, 982.2529342123307, -0.09600000455975533, 0.12800000607967377, 1.0240000486373901, 0.0, 0.0, 0.0, 0.0, 0.0, 1.706130307039056E9, 0.0, 2024-01-24 13:05:07.039
74.0, 1143.8820605473593, 651.0324345366098, -169.16128484578803, 1024.54559286125, -0.09600000455975533, 0.12800000607967377, 1.0240000486373901, 0.0, 0.0, 0.0, 0.0, 0.0, 1.706130307039056E9, 0.0, 2024-01-24 13:05:07.039
75.0, 1204.4628299796022, 710.0723651871085, 3.8446171544492245, 963.2448926875368, -0.09600000455975533, 0.12800000607967377, 1.0240000486373901, 0.0, 0.0, 0.0, 0.0, 0.0, 1.706130307055212E9, 0.0, 2024-01-24 13:05:07.055
75.0, 1322.9540802757256, 799.0333654331043, 192.15605972334743, 802.113173046615, -0.09600000455975533, 0.12800000607967377, 1.0240000486373901, 0.0, 0.0, 0.0, 0.0, 0.0, 1.706130307055212E9, 0.0, 2024-01-24 13:05:07.055
76.0, 1478.2964347852394, 1026.7315643853508, 232.26087689818814, 934.7543348250911, -0.09600000455975533, 0.12800000607967377, 1.0240000486373901, 0.0, 0.0, 0.0, 0.0, 0.0, 1.706130307060744E9, 0.0, 2024-01-24 13:05:07.060
76.0, 1385.9807442789897, 989.6990750241093, 182.94655608246103, 955.4939500293694, -0.09600000455975533, 0.12800000607967377, 1.0240000486373901, 0.0, 0.0, 0.0, 0.0, 0.0, 1.706130307060744E9, 0.0, 2024-01-24 13:05:07.060
77.0, 1319.7602057135664, 920.8718261895701, 242.58674067584798, 899.1916261464357, -0.09600000455975533, 0.12800000607967377, 1.0240000486373901, 0.0, 0.0, 0.0, 0.0, 0.0, 1.706130307067767E9, 0.0, 2024-01-24 13:05:07.067
77.0, 1133.1560274744406, 811.8930114307441, 465.1968057383783, 867.481014422141, -0.09600000455975533, 0.12800000607967377, 1.0240000486373901, 0.0, 0.0, 0.0, 0.0, 0.0, 1.706130307067767E9, 0.0, 2024-01-24 13:05:07.067
79.0, 1157.5177357858047, 800.1441157199442, 432.7887026723474, 756.2956586894579, -0.09600000455975533, 0.12800000607967377, 1.0240000486373901, 0.0, 0.0, 0.0, 0.0, 0.0, 1.706130307072753E9, 0.0, 2024-01-24 13:05:07.072
79.0, 1142.3075626660138, 909.4370820750482, 349.36649426072836, 792.9148891055956, -0.09600000455975533, 0.12800000607967377, 1.0240000486373901, 0.0, 0.0, 0.0, 0.0, 0.0, 1.706130307072753E9, 0.0, 2024-01-24 13:05:07.072
80.0, 1118.4544807486236, 898.3183595067821, 452.0772366938181, 679.143392553553, -0.09600000455975533, 0.12800000607967377, 1.008000047877431, 0.0, 0.0, 0.0, 0.0, 0.0, 1.706130307132749E9, 0.0, 2024-01-24 13:05:07.132
80.0, 1181.2586207045242, 895.6349812885746, 559.5881407200359, 439.8103648391552, -0.09600000455975533, 0.12800000607967377, 1.008000047877431, 0.0, 0.0, 0.0, 0.0, 0.0, 1.706130307132749E9, 0.0, 2024-01-24 13:05:07.132
81.0, 1312.250486602541, 1041.4705101107247, 543.4504724112339, 474.5297260778025, -0.09600000455975533, 0.12800000607967377, 1.008000047877431, 0.0, 0.0, 0.0, 0.0, 0.0, 1.706130307138779E9, 0.0, 2024-01-24 13:05:07.138
81.0, 1200.65561182471, 909.1004910790361, 410.9906957806088, 374.8464326588437, -0.09600000455975533, 0.12800000607967377, 1.008000047877431, 0.0, 0.0, 0.0, 0.0, 0.0, 1.706130307138779E9, 0.0, 2024-01-24 13:05:07.138
82.0, 1440.4729565833695, 1043.445177287329, 236.95258139260113, 562.4996528355405, -0.09600000455975533, 0.12800000607967377, 1.008000047877431, 0.0, 0.0, 0.0, 0.0, 0.0, 1.706130307142457E9, 0.0, 2024-01-24 13:05:07.142
82.0, 1299.0056309094653, 878.480060191825, 458.05546677298844, 514.2736429069191, -0.09600000455975533, 0.12800000607967377, 1.008000047877431, 0.0, 0.0, 0.0, 0.0, 0.0, 1.706130307142457E9, 0.0, 2024-01-24 13:05:07.142
83.0, 1137.2848770255223, 751.6488329945132, 699.3519419641234, 609.4484869292937, -0.09600000455975533, 0.12800000607967377, 1.008000047877431, 0.0, 0.0, 0.0, 0.0, 0.0, 1.706130307147416E9, 0.0, 2024-01-24 13:05:07.147
83.0, 1261.9394824486226, 853.3441925896332, 479.8590835146606, 848.9666396914981, -0.09600000455975533, 0.12800000607967377, 1.008000047877431, 0.0, 0.0, 0.0, 0.0, 0.0, 1.706130307147416E9, 0.0, 2024-01-24 13:05:07.147
84.0, 1144.0372663955204, 747.9108029888012, 346.331565446686, 685.4825229784474, -0.09600000455975533, 0.12800000607967377, 1.008000047877431, 0.0, 0.0, 0.0, 0.0, 0.0, 1.706130307191867E9, 0.0, 2024-01-24 13:05:07.191
84.0, 1318.1352191828191, 507.39409693842754, 397.7720193872228, 876.563361464534, -0.09600000455975533, 0.12800000607967377, 1.008000047877431, 0.0, 0.0, 0.0, 0.0, 0.0, 1.706130307191867E9, 0.0, 2024-01-24 13:05:07.191
85.0, 1246.5236148312688, 452.0921962936409, 452.3726887903176, 741.773627161514, -0.09600000455975533, 0.12800000607967377, 1.008000047877431, 0.0, 0.0, 0.0, 0.0, 0.0, 1.706130307196621E9, 0.0, 2024-01-24 13:05:07.196
85.0, 1192.3866930226795, 373.0961594795808, 462.00293117621914, 926.2067934763618, -0.09600000455975533, 0.12800000607967377, 1.008000047877431, 0.0, 0.0, 0.0, 0.0, 0.0, 1.706130307196621E9, 0.0, 2024-01-24 13:05:07.196
86.0, 1022.5653158347122, 236.664609096013, 616.1597373997793, 1144.7160582374781, -0.09600000455975533, 0.12800000607967377, 1.008000047877431, 0.0, 0.0, 0.0, 0.0, 0.0, 1.706130307202762E9, 0.0, 2024-01-24 13:05:07.202
86.0, 993.6072704778053, 205.2419696683064, 579.6695335321128, 1145.320052080322, -0.09600000455975533, 0.12800000607967377, 1.008000047877431, 0.0, 0.0, 0.0, 0.0, 0.0, 1.706130307202762E9, 0.0, 2024-01-24 13:05:07.202
89.0, 1220.3162658917718, 430.69809859711677, 335.79252737155184, 1307.7588667557575, -0.09600000455975533, 0.12800000607967377, 1.008000047877431, 0.0, 0.0, 0.0, 0.0, 0.0, 1.706130307207752E9, 0.0, 2024-01-24 13:05:07.207
89.0, 1407.7768812207505, 196.6514194700867, 422.74707129132, 1502.276673301123, -0.09600000455975533, 0.12800000607967377, 1.008000047877431, 0.0, 0.0, 0.0, 0.0, 0.0, 1.706130307207752E9, 0.0, 2024-01-24 13:05:07.207
90.0, 1286.1478548618034, 86.73575977236032, 446.8974752551876, 1306.1151807252318, -0.09600000455975533, 0.12800000607967377, 1.008000047877431, 0.0, 0.0, 0.0, 0.0, 0.0, 1.706130307265405E9, 0.0, 2024-01-24 13:05:07.265
90.0, 1137.2867469755001, -57.25225847167894, 399.3652167683467, 1414.5461001405492, -0.09600000455975533, 0.12800000607967377, 1.008000047877431, 0.0, 0.0, 0.0, 0.0, 0.0, 1.706130307265405E9, 0.0, 2024-01-24 13:05:07.265
91.0, 944.801576056052, -204.24902623007074, 577.5658398070373, 1182.900436785072, -0.09600000455975533, 0.12800000607967377, 1.008000047877431, 0.0, 0.0, 0.0, 0.0, 0.0, 1.706130307270876E9, 0.0, 2024-01-24 13:05:07.270
91.0, 893.8043002602644, -268.3209922709502, 537.9640391762368, 1223.3343651560135, -0.09600000455975533, 0.12800000607967377, 1.008000047877431, 0.0, 0.0, 0.0, 0.0, 0.0, 1.706130307270876E9, 0.0, 2024-01-24 13:05:07.270
92.0, 1060.9553888798691, -91.81267396220937, 388.54194629658014, 1464.890763394069, -0.09600000455975533, 0.12800000607967377, 1.008000047877431, 0.0, 0.0, 0.0, 0.0, 0.0, 1.706130307277076E9, 0.0, 2024-01-24 13:05:07.277
92.0, 1049.3972280668095, -83.31188136292621, 289.0063789258711, 1584.1374734812416, -0.09600000455975533, 0.12800000607967377, 1.008000047877431, 0.0, 0.0, 0.0, 0.0, 0.0, 1.706130307277076E9, 0.0, 2024-01-24 13:05:07.277
95.0, 1090.7362122270279, -67.15364360436797, 428.9889643173665, 1520.8284470313229, -0.09600000455975533, 0.12800000607967377, 1.008000047877431, 0.0, 0.0, 0.0, 0.0, 0.0, 1.706130307282744E9, 0.0, 2024-01-24 13:05:07.282
95.0, 1094.5883091813885, -76.47160434396937, 512.4448318285868, 1311.5716947605833, -0.09600000455975533, 0.12800000607967377, 1.008000047877431, 0.0, 0.0, 0.0, 0.0, 0.0, 1.706130307282744E9, 0.0, 2024-01-24 13:05:07.282
96.0, 1087.3067239676602, -75.35711415717378, 351.2027851389721, 1258.667069987394, -0.09600000455975533, 0.12800000607967377, 1.008000047877431, 0.0, 0.0, 0.0, 0.0, 0.0, 1.70613030728747E9, 0.0, 2024-01-24 13:05:07.287
96.0, 1145.392980129458, -26.272797188721597, 403.00226947525516, 1357.6940109641291, -0.09600000455975533, 0.12800000607967377, 1.008000047877431, 0.0, 0.0, 0.0, 0.0, 0.0, 1.70613030728747E9, 0.0, 2024-01-24 13:05:07.287
97.0, 1334.852571984753, 96.05185056198388, 202.07801430579275, 1521.479189623613, -0.09600000455975533, 0.12800000607967377, 1.008000047877431, 0.0, 0.0, 0.0, 0.0, 0.0, 1.706130307291538E9, 0.0, 2024-01-24 13:05:07.291
97.0, 1254.7083858842961, 6.610273171681911, 21.337999197188765, 1581.0258767181076, -0.09600000455975533, 0.12800000607967377, 1.008000047877431, 0.0, 0.0, 0.0, 0.0, 0.0, 1.706130307291538E9, 0.0, 2024-01-24 13:05:07.291
98.0, 1112.3528339709155, -128.7142668250017, -190.2206614962779, 1704.425745706074, -0.09600000455975533, 0.12800000607967377, 1.008000047877431, 0.0, 0.0, 0.0, 0.0, 0.0, 1.706130307296865E9, 0.0, 2024-01-24 13:05:07.296
98.0, 1285.6560580176301, -0.521716043818742, -363.5033160932362, 1506.6056074998342, -0.09600000455975533, 0.12800000607967377, 1.008000047877431, 0.0, 0.0, 0.0, 0.0, 0.0, 1.706130307296865E9, 0.0, 2024-01-24 13:05:07.296
2.0, 1319.5694708158262, -56.891358125954866, -509.71657481091097, 1602.7958343601786, -0.09600000455975533, 0.12800000607967377, 1.008000047877431, 0.0, 0.0, 0.0, 0.0, 0.0, 1.70613030730141E9, 0.0, 2024-01-24 13:05:07.301
2.0, 1379.7164118532091, -102.73131188284606, -640.7738889581524, 1803.3909783335403, -0.09600000455975533, 0.12800000607967377, 1.008000047877431, 0.0, 0.0, 0.0, 0.0, 0.0, 1.70613030730141E9, 0.0, 2024-01-24 13:05:07.301
3.0, 1346.4144726977684, -312.5789683465846, -646.097636545077, 1740.5176502284594, -0.09600000455975533, 0.12800000607967377, 1.008000047877431, 0.0, 0.0, 0.0, 0.0, 0.0, 1.70613030732776E9, 0.0, 2024-01-24 13:05:07.327
3.0, 1440.0241685886867, -313.47093448601663, -626.6351971756667, 1691.7325252564624, -0.09600000455975533, 0.12800000607967377, 1.008000047877431, 0.0, 0.0, 0.0, 0.0, 0.0, 1.70613030732776E9, 0.0, 2024-01-24 13:05:07.327
4.0, 1329.3792283996008, -467.13594386540353, -416.0620001205243, 1514.6295628547668, -0.09600000455975533, 0.12800000607967377, 1.008000047877431, 0.0, 0.0, 0.0, 0.0, 0.0, 1.706130307333746E9, 0.0, 2024-01-24 13:05:07.333
4.0, 1443.324630299583, -353.31395866395906, -179.70593277085572, 1523.9531334443018, -0.09600000455975533, 0.12800000607967377, 1.008000047877431, 0.0, 0.0, 0.0, 0.0, 0.0, 1.706130307333746E9, 0.0, 2024-01-24 13:05:07.333
5.0, 1349.7055846587755, -337.6325581497513, -79.9291418530047, 1764.5296778939664, -0.09600000455975533, 0.12800000607967377, 1.008000047877431, 0.0, 0.0, 0.0, 0.0, 0.0, 1.706130307339236E9, 0.0, 2024-01-24 13:05:07.339
5.0, 1485.5668002991006, -538.263231172692, 46.249472802039236, 1935.1046449230053, -0.09600000455975533, 0.12800000607967377, 1.008000047877431, 0.0, 0.0, 0.0, 0.0, 0.0, 1.706130307339236E9, 0.0, 2024-01-24 13:05:07.339
6.0, 1644.3947415673174, -698.813396370504, -110.53461314039305, 1774.5918787247501, -0.09600000455975533, 0.12800000607967377, 1.008000047877431, 0.0, 0.0, 0.0, 0.0, 0.0, 1.706130307346829E9, 0.0, 2024-01-24 13:05:07.346
6.0, 1492.2761808196083, -705.0908184461296, 32.32582526700571, 1759.7388660507277, -0.09600000455975533, 0.12800000607967377, 1.008000047877431, 0.0, 0.0, 0.0, 0.0, 0.0, 1.706130307346829E9, 0.0, 2024-01-24 13:05:07.346
7.0, 1500.7956729186699, -537.1019922364503, 97.72171589219943, 1534.709085716866, -0.09600000455975533, 0.12800000607967377, 1.008000047877431, 0.0, 0.0, 0.0, 0.0, 0.0, 1.706130307351311E9, 0.0, 2024-01-24 13:05:07.351
7.0, 1554.4501476329751, -404.78994165407494, 109.17141960654408, 1356.3345573302358, -0.09600000455975533, 0.12800000607967377, 1.008000047877431, 0.0, 0.0, 0.0, 0.0, 0.0, 1.706130307351311E9, 0.0, 2024-01-24 13:05:07.351
8.0, 1604.5573272393085, -444.2197068869136, 205.4327045660466, 1414.3030066434294, -0.09600000455975533, 0.12800000607967377, 1.008000047877431, 0.0, 0.0, 0.0, 0.0, 0.0, 1.706130307355717E9, 0.0, 2024-01-24 13:05:07.355
8.0, 1401.5424679946154, -243.70871066255495, 395.13538991846144, 1596.903621979989, -0.09600000455975533, 0.12800000607967377, 1.008000047877431, 0.0, 0.0, 0.0, 0.0, 0.0, 1.706130307355717E9, 0.0, 2024-01-24 13:05:07.355
9.0, 1447.2309558033012, -242.73820662405342, 195.00960338953882, 1586.678735501133, -0.09600000455975533, 0.12800000607967377, 1.008000047877431, 0.0, 0.0, 0.0, 0.0, 0.0, 1.706130307360722E9, 0.0, 2024-01-24 13:05:07.360
9.0, 1680.3108707917854, -80.56679479544982, 11.821823759935796, 1742.1931254086085, -0.09600000455975533, 0.12800000607967377, 1.008000047877431, 0.0, 0.0, 0.0, 0.0, 0.0, 1.706130307360722E9, 0.0, 2024-01-24 13:05:07.360
10.0, 1625.8784968866967, -189.84854145068675, 19.70179296657443, 1959.0325248395093, -0.09600000455975533, 0.12800000607967377, 1.0240000486373901, 0.0, 0.0, 0.0, 0.0, 0.0, 1.706130307368726E9, 0.0, 2024-01-24 13:05:07.368
10.0, 1864.482244109735, -374.56968006212264, 160.70911094592884, 1724.832509814296, -0.09600000455975533, 0.12800000607967377, 1.0240000486373901, 0.0, 0.0, 0.0, 0.0, 0.0, 1.706130307368726E9, 0.0, 2024-01-24 13:05:07.368
11.0, 1749.0090930778533, -434.0266095576808, 130.66275470191613, 1772.2488314025104, -0.09600000455975533, 0.12800000607967377, 1.0240000486373901, 0.0, 0.0, 0.0, 0.0, 0.0, 1.706130307372711E9, 0.0, 2024-01-24 13:05:07.372
11.0, 1616.5362267973833, -627.897413410712, 145.33438222808763, 1680.2603821423836, -0.09600000455975533, 0.12800000607967377, 1.0240000486373901, 0.0, 0.0, 0.0, 0.0, 0.0, 1.706130307372711E9, 0.0, 2024-01-24 13:05:07.372
12.0, 1744.0144566870295, -553.2078713956289, 163.07272771792486, 1435.968247086741, -0.09600000455975533, 0.12800000607967377, 1.0240000486373901, 0.0, 0.0, 0.0, 0.0, 0.0, 1.706130307401463E9, 0.0, 2024-01-24 13:05:07.401
12.0, 1759.3798356549814, -549.7989525860175, 115.01127338735387, 1669.1304398742504, -0.09600000455975533, 0.12800000607967377, 1.0240000486373901, 0.0, 0.0, 0.0, 0.0, 0.0, 1.706130307401463E9, 0.0, 2024-01-24 13:05:07.401
13.0, 1652.203652674798, -655.6773902815767, 212.54412433179095, 1673.248069725465, -0.09600000455975533, 0.12800000607967377, 1.0240000486373901, 0.0, 0.0, 0.0, 0.0, 0.0, 1.706130307408214E9, 0.0, 2024-01-24 13:05:07.408
13.0, 1450.4603594150394, -829.0460625775158, 107.94847232103348, 1491.0943724336103, -0.09600000455975533, 0.12800000607967377, 1.0240000486373901, 0.0, 0.0, 0.0, 0.0, 0.0, 1.706130307408214E9, 0.0, 2024-01-24 13:05:07.408
14.0, 1499.2305247872137, -705.193665694911, 120.34437072416767, 1589.7548032146879, -0.09600000455975533, 0.12800000607967377, 1.0240000486373901, 0.0, 0.0, 0.0, 0.0, 0.0, 1.706130307413077E9, 0.0, 2024-01-24 13:05:07.413
14.0, 1326.2713715364225, -835.3010452534072, 146.9425392090343, 1349.2736262138933, -0.09600000455975533, 0.12800000607967377, 1.0240000486373901, 0.0, 0.0, 0.0, 0.0, 0.0, 1.706130307413077E9, 0.0, 2024-01-24 13:05:07.413
15.0, 1323.9694631136954, -829.0254931277595, 257.3556056008674, 1588.9413749743253, -0.09600000455975533, 0.12800000607967377, 1.0240000486373901, 0.0, 0.0, 0.0, 0.0, 0.0, 1.706130307446731E9, 0.0, 2024-01-24 13:05:07.446
15.0, 1445.1160423783585, -659.2340351394378, 254.47962253494188, 1657.6003283108585, -0.09600000455975533, 0.12800000607967377, 1.0240000486373901, 0.0, 0.0, 0.0, 0.0, 0.0, 1.706130307446731E9, 0.0, 2024-01-24 13:05:07.446
16.0, 1682.1340720201842, -899.2720339954831, 486.8564363317564, 1428.1911251288839, -0.09600000455975533, 0.12800000607967377, 1.0240000486373901, 0.0, 0.0, 0.0, 0.0, 0.0, 1.706130307449826E9, 0.0, 2024-01-24 13:05:07.449
16.0, 1795.4642603774555, -818.4640156528912, 692.7940273918211, 1530.2492550197057, -0.09600000455975533, 0.12800000607967377, 1.0240000486373901, 0.0, 0.0, 0.0, 0.0, 0.0, 1.706130307449826E9, 0.0, 2024-01-24 13:05:07.449
